File: text_data/C1-10.txt
Load (N)	Extension (mm)

-2.5056
-2.5060	-1.2741
-2.5065	-1.2741
-2.5069	-1.2741
-2.5073	-1.2741
-2.5077	-1.2713
-0.67381	-1.1373
0.047371	-0.95618
0.76855	-0.76835
1.6320	-0.57872
2.6404	-0.38896
3.6488	-0.19921
4.6573	-0.0094521
5.0152	0.091177
4.7493	0.093869
3.2313	0.017269
0.90789	-0.15916
-0.15938	-0.34506
-1.2266	-0.53133
-2.2939	-0.71759
-3.3612	-0.90432
-4.4284	-1.0926
-5.4957	-1.2806
-6.5630	-1.4733
-7.6302	-1.6587
-8.6975	-1.8467
-9.6936	-2.0354
-10.655	-2.2241
-11.616	-2.4128
-12.577	-2.6015
-13.538	-2.7902
-14.499	-2.9789
-15.460	-3.1676
-16.422	-3.3563
-17.383	-3.5450
-18.344	-3.7336
-19.305	-3.9221
-20.266	-4.1106
-21.227	-4.2991
-22.189	-4.4875
-23.150	-4.6760
-24.111	-4.8645
-25.072	-5.0530
-26.050	-5.2415
-27.051	-5.4300
-28.053	-5.6183
-29.055	-5.8063
-30.056	-5.9942
-31.058	-6.1822
-32.060	-6.3701
-33.061	-6.5580
-34.063	-6.7460
-35.065	-6.9339
-36.066	-7.1219
-37.068	-7.3098
-38.062	-7.4980
-38.113	-7.6863
-40.082	-7.8747
-41.046	-8.0630
-42.009	-8.2513
-42.972	-8.4397
-43.935	-8.6280
-44.898	-8.8164
-45.862	-9.0047
-46.825	-9.1928
-47.788	-9.3809
-48.751	-9.5690
-49.714	-9.7571
-50.677	-9.9451
-49.073	-10.007
-48.482	-10.003
-47.340	-9.8944
-45.670	-9.7198
-43.999	-9.5381
-42.785	-9.3499
-41.835	-9.1617
-40.885	-8.9735
-39.936	-8.7854
-38.986	-8.5972
-38.036	-8.4090
-37.087	-8.2208
-36.137	-8.0326
-35.188	-7.8444
-34.238	-7.6562
-33.288	-7.4680
-32.339	-7.2798
-31.389	-7.0916
-30.439	-6.9034
-29.490	-6.7152
-28.540	-6.5270
-27.590	-6.3388
-26.641	-6.1506
-25.691	-5.9624
-24.741	-5.7743
-23.792	-5.5861
-22.842	-5.3979
-21.892	-5.2097
-20.943	-5.0215
-19.993	-4.8333
-19.043	-4.6451
-18.094	-4.4569
-17.144	-4.2687
-16.194	-4.0805
-15.245	-3.8923
-14.295	-3.7041
-13.345	-3.5159
-12.412	-3.3277
-11.515	-3.1395
-10.617	-2.9513
-9.7194	-2.7631
-8.5316	-2.5750
-7.2572	-2.3868
-6.1392	-2.1986
-5.0658	-2.0104
-4.0215	-1.8222
-3.1868	-1.6340
-2.3521	-1.4458
-1.4539	-1.2576
-0.54919	-1.0693
0.35549	-0.88093
1.2602	-0.69256
2.1648	-0.50420
3.0695	-0.31583
3.9742	-0.12746
4.8789	0.060911
5.8716	0.24928
6.8701	0.43765
7.8686	0.62602
8.8672	0.81439
9.8657	1.0028
10.852	1.1911
11.787	1.3795
12.721	1.5679
13.655	1.7562
14.590	1.9446
15.524	2.1330
16.458	2.3213
17.392	2.5092
18.705	2.6971
19.988	2.8851
20.803	3.0730
21.618	3.2610
22.433	3.4489
23.249	3.6369
24.064	3.8248
24.929	4.0134
25.889	4.2049
26.848	4.3931
27.875	4.5812
28.978	4.7693
30.080	4.9574
31.183	5.1456
32.128	5.3337
33.009	5.5218
33.889	5.7099
34.770	5.8980
35.651	6.0862
36.531	6.2743
37.412	6.4624
38.619	6.6505
40.248	6.8387
41.154	7.0268
42.059	7.2159
42.965	7.4052
43.870	7.5919
44.776	7.7787
45.681	7.9654
46.587	8.1530
47.492	8.3412
48.899	8.5294
50.560	8.7176
52.221	8.9057
53.498	9.0939
54.039	9.2821
54.579	9.4703
55.120	9.6584
55.811	9.8466
56.415	10.004
50.735	9.8173
49.313	9.6448
48.245	9.4567
47.177	9.2686
46.109	9.0805
45.041	8.8924
43.973	8.7043
42.905	8.5162
41.837	8.3281
40.769	8.1400
39.701	7.9519
38.633	7.7638
37.566	7.5757
36.498	7.3876
35.430	7.1995
34.362	7.0114
33.294	6.8233
32.226	6.6352
31.158	6.4471
30.108	6.2590
29.096	6.0709
28.084	5.8829
27.071	5.6948
26.059	5.5067
25.047	5.3186
24.035	5.1305
23.022	4.9424
22.010	4.7543
20.998	4.5662
19.986	4.3781
18.973	4.1900
17.961	4.0019
16.949	3.8138
15.936	3.6257
14.924	3.4408
13.912	3.2544
12.900	3.0662
11.894	2.8780
10.916	2.6898
9.9390	2.5016
8.9617	2.3134
7.9844	2.1252
7.0072	1.9370
6.4645	1.7488
5.3170	1.5606
3.8949	1.3724
2.7220	1.1842
1.7598	0.99595
0.79756	0.80775
-0.16466	0.61955
-1.1269	0.43134
-2.0891	0.24314
-3.0513	0.054940
-4.0135	-0.13326
-4.9757	-0.32146
-5.9380	-0.50967
-6.9002	-0.69787
-7.8624	-0.88607
-8.8246	-1.0743
-9.7868	-1.2625
-10.749	-1.4507
-11.711	-1.6389
-12.673	-1.8271
-13.636	-2.0153
-14.598	-2.2035
-15.560	-2.3917
-16.522	-2.5799
-17.524	-2.7681
-18.624	-2.9563
-19.664	-3.1445
-20.650	-3.3327
-21.636	-3.5209
-22.622	-3.7092
-23.553	-3.8975
-24.467	-4.0859
-25.380	-4.2742
-26.294	-4.4626
-27.213	-4.6509
-28.140	-4.8393
-29.068	-5.0276
-30.526	-5.2159
-31.482	-5.4043
-32.438	-5.5926
-33.394	-5.7810
-34.350	-5.9693
-35.306	-6.1563
-36.262	-6.3423
-37.218	-6.5305
-38.174	-6.7186
-39.130	-6.9067
-40.085	-7.0948
-41.041	-7.2830
-41.997	-7.4711
-42.953	-7.6592
-43.931	-7.8473
-44.930	-8.0355
-45.929	-8.2236
-46.929	-8.4118
-47.928	-8.6002
-48.927	-8.7886
-49.926	-8.9770
-50.925	-9.1654
-51.925	-9.3537
-52.924	-9.5421
-53.923	-9.7305
-54.922	-9.9189
-50.536	-9.9359
-45.801	-9.7604