File: text_data/C1.txt
Load (N)	Extension (mm)

-2.6020	-1.4432
-2.5728	-1.4431
-0.55998	-1.1984
1.9749	-0.65788
4.5097	-0.11758
5.3914	0.046700
0.25189	-0.45516
-2.5748	-0.98784
-5.4014	-1.5262
-8.2280	-2.0655
-11.055	-2.6027
-13.881	-3.1398
-16.708	-3.6770
-19.535	-4.2142
-22.303	-4.7514
-25.054	-5.2885
-27.806	-5.8257
-30.557	-6.3611
-33.309	-6.8973
-36.083	-7.4338
-39.024	-7.9702
-41.614	-8.5068
-44.133	-9.0436
-46.891	-9.5804
-49.649	-10.117
-52.407	-10.654
-55.165	-11.191
-57.928	-11.728
-60.798	-12.265
-63.616	-12.800
-66.198	-13.337
-69.005	-13.873
-71.945	-14.410
-74.886	-14.947
-77.827	-15.483
-80.571	-16.020
-83.639	-16.556
-86.642	-17.093
-90.297	-17.629
-93.951	-18.166
-97.606	-18.703
-101.26	-19.239
-104.92	-19.776
-109.62	-20.312
-113.80	-20.849
-117.97	-21.385
-123.50	-21.922
-129.34	-22.458
-135.46	-22.994
-141.58	-23.530
-155.89	-24.066
-247.39	-24.601
-463.07	-25.131
-441.96	-25.090
-178.57	-24.568
-127.18	-24.037
-102.81	-23.501
-100.28	-22.964
-97.750	-22.428
-95.220	-21.891
-92.689	-21.355
-90.159	-20.818
-87.628	-20.282
-85.098	-19.745
-82.567	-19.209
-80.037	-18.672
-81.056	-18.136
-77.993	-17.598
-74.642	-17.061
-72.004	-16.524
-69.365	-15.988
-66.727	-15.451
-64.089	-14.915
-61.451	-14.378
-58.990	-13.841
-56.579	-13.305
-54.169	-12.768
-51.754	-12.231
-49.321	-11.695
-46.377	-11.157
-44.018	-10.621
-41.201	-10.084
-38.926	-9.5477
-36.545	-9.0111
-33.786	-8.4745
-31.162	-7.9379
-28.538	-7.4012
-25.871	-6.8646
-23.183	-6.3280
-21.018	-5.7899
-18.667	-5.2533
-16.245	-4.7167
-13.592	-4.1801
-11.089	-3.6436
-8.6560	-3.1070
-6.2232	-2.5704
-3.7903	-2.0338
-1.3574	-1.4976
1.1167	-0.96160
3.7148	-0.42580
6.3130	0.11001
8.9111	0.64581
11.509	1.1826
14.107	1.7193
16.706	2.2561
19.335	2.7929
22.105	3.3296
24.874	3.8664
27.644	4.4032
30.223	4.9400
32.745	5.4767
35.268	6.0135
38.558	6.5503
41.097	7.0798
43.944	7.6276
46.907	8.1603
49.970	8.6955
52.970	9.2321
55.840	9.7687
58.710	10.305
62.146	10.842
64.758	11.384
67.011	11.920
70.654	12.457
75.325	12.993
76.985	13.530
78.686	14.066
83.034	14.603
87.774	15.140
90.546	15.676
92.890	16.213
96.802	16.748
101.86	17.284
104.69	17.820
107.53	18.356
110.96	18.892
115.38	19.429
118.35	19.965
121.18	20.502
126.70	21.038
130.46	21.575
133.29	22.111
136.11	22.648
143.27	23.184
146.73	23.722
150.19	24.259
153.65	24.796
161.19	25.332
166.49	25.869
170.14	26.405
173.79	26.942
183.29	27.479
189.38	28.016
193.18	28.553
196.97	29.090
210.27	29.627
217.16	30.162
223.10	30.698
229.99	31.235
249.31	31.771
259.37	32.307
269.42	32.843
283.56	33.379
308.02	33.914
325.10	34.450
344.53	34.986
375.53	35.522
411.62	36.058
452.22	36.593
458.54	36.873
331.18	36.351
280.01	35.814
251.83	35.277
235.32	34.741
218.82	34.204
209.86	33.667
201.34	33.130
192.81	32.594
185.92	32.057
179.70	31.520
174.63	30.984
169.56	30.447
164.54	29.911
159.91	29.374
155.42	28.837
151.22	28.301
147.02	27.764
142.86	27.228
140.08	26.691
135.91	26.154
131.79	25.618
128.32	25.081
124.84	24.544
121.37	24.006
117.89	23.468
114.41	22.932
110.94	22.395
107.46	21.859
103.99	21.322
100.51	20.786
97.357	20.250
94.260	19.714
91.087	19.178
87.914	18.643
84.741	18.107
81.688	17.571
78.660	17.033
75.556	16.496
72.434	15.959
68.724	15.421
65.605	14.883
62.486	14.347
59.367	13.811
56.249	13.275
53.130	12.738
50.011	12.201
46.893	11.664
43.774	11.126
40.655	10.589
37.536	10.052
34.418	9.5149
31.299	8.9777
28.180	8.4405
25.062	7.9033
21.943	7.3692
18.881	6.8327
15.833	6.2963
12.785	5.7598
9.7366	5.2233
6.6885	4.6867
3.9370	4.1500
1.0792	3.6133
-1.9473	3.0766
-4.4721	2.5398
-7.6131	2.0031
-10.754	1.4664
-13.895	0.92971
-17.036	0.39300
-20.329	-0.14371
-23.875	-0.68042
-27.421	-1.2171
-29.544	-1.7538
-32.773	-2.2905
-36.003	-2.8269
-39.232	-3.3632
-42.461	-3.8996
-45.716	-4.4360
-49.323	-4.9728
-52.930	-5.5100
-56.537	-6.0472
-60.144	-6.5845
-63.751	-7.1210
-67.345	-7.6573
-70.879	-8.1936
-74.413	-8.7299
-77.947	-9.2674
-81.480	-9.8058
-85.014	-10.342
-88.548	-10.879
-92.081	-11.415
-95.806	-11.951
-99.807	-12.488
-103.81	-13.024
-107.81	-13.561
-111.81	-14.098
-115.81	-14.635
-119.82	-15.172
-123.82	-15.708
-127.82	-16.245
-131.82	-16.781
-136.42	-17.318
-141.45	-17.854
-146.44	-18.390
-150.82	-18.927
-153.18	-19.463
-160.32	-20.000
-166.23	-20.536
-171.47	-21.073
-176.72	-21.609
-181.97	-22.145
-189.02	-22.681
-196.79	-23.217
-203.59	-23.754
-218.42	-24.289
-318.14	-24.823
-421.54	-25.068
-321.41	-24.929