File: text_data/C10 - 10.txt
Load (N)	Extension (mm)

39.888
39.880	3.5098
39.871	3.5098
39.862	3.5098
39.854	3.5079
30.067	3.3639
27.002	3.1767
24.327	2.9810
22.479	2.7843
21.240	2.5877
19.473	2.3917
18.541	2.1956
17.048	1.9996
15.837	1.8043
14.626	1.6100
13.416	1.4141
12.205	1.2190
10.995	1.0239
9.7840	0.82878
8.6249	0.63369
7.5463	0.43866
6.4677	0.24366
5.3892	0.048666
5.2179	-0.094200
8.9129	-0.091297
5.2448	-0.14560
3.1102	-0.32041
2.0358	-0.51507
0.96128	-0.70972
-0.11319	-0.90438
-1.1877	-1.0990
-2.2621	-1.2937
-3.3366	-1.4883
-4.4111	-1.6830
-5.4856	-1.8777
-6.5600	-2.0723
-7.6345	-2.2670
-8.7090	-2.4616
-9.7834	-2.6563
-10.858	-2.8509
-11.932	-3.0456
-13.007	-3.2402
-14.081	-3.4349
-15.156	-3.6296
-16.230	-3.8242
-17.305	-4.0189
-18.379	-4.2135
-19.454	-4.4082
-20.528	-4.6029
-21.603	-4.7977
-22.677	-4.9925
-23.752	-5.1872
-24.826	-5.3820
-25.901	-5.5768
-26.975	-5.7715
-28.049	-5.9656
-29.124	-6.1596
-30.198	-6.3536
-31.273	-6.5484
-32.347	-6.7432
-33.422	-6.9379
-34.496	-7.1327
-35.560	-7.3274
-36.624	-7.5222
-37.687	-7.7169
-38.751	-7.9117
-39.802	-8.1065
-40.853	-8.3012
-41.903	-8.4960
-42.954	-8.6907
-44.005	-8.8855
-45.055	-9.0803
-46.106	-9.2750
-47.157	-9.4698
-48.207	-9.6645
-49.258	-9.8593
-50.234	-10.028
-37.156	-10.006
-34.956	-9.9553
-31.483	-9.7728
-29.760	-9.5864
-28.038	-9.3988
-26.315	-9.2040
-24.592	-9.0093
-22.870	-8.8146
-22.061	-8.6198
-21.318	-8.4251
-20.575	-8.2303
-19.832	-8.0356
-19.089	-7.8408
-18.345	-7.6461
-17.393	-7.4513
-16.364	-7.2566
-15.334	-7.0618
-14.305	-6.8671
-13.276	-6.6723
-12.246	-6.4776
-11.217	-6.2828
-10.188	-6.0881
-9.1581	-5.8933
-8.1288	-5.6986
-7.0994	-5.5038
-6.0700	-5.3091
-5.0406	-5.1143
-4.0112	-4.9196
-2.9818	-4.7248
-1.9524	-4.5301
-0.92304	-4.3354
0.10635	-4.1406
1.1357	-3.9459
2.1651	-3.7511
3.2064	-3.5564
4.2500	-3.3616
5.2936	-3.1669
6.3371	-2.9721
7.3807	-2.7774
8.4209	-2.5826
9.4082	-2.3879
10.395	-2.1931
11.383	-1.9984
12.370	-1.8036
13.357	-1.6089
14.344	-1.4140
15.332	-1.2192
16.319	-1.0243
17.306	-0.82945
18.294	-0.63460
19.281	-0.43975
20.268	-0.24490
21.255	-0.050043
22.243	0.14481
23.230	0.33966
24.217	0.53452
25.253	0.72937
26.370	0.92422
27.488	1.1191
28.605	1.3139
29.722	1.5088
30.839	1.7035
32.014	1.8982
33.227	2.0928
34.440	2.2874
35.652	2.4820
36.865	2.6767
38.304	2.8713
39.850	3.0659
41.395	3.2605
42.913	3.4551
43.830	3.6498
44.746	3.8444
45.663	4.0390
46.579	4.2336
47.496	4.4283
48.413	4.6229
49.329	4.8175
50.246	5.0121
51.163	5.2068
52.262	5.4023
53.615	5.5978
54.969	5.7931
56.322	5.9879
57.395	6.1827
57.954	6.3774
58.513	6.5722
59.073	6.7670
60.328	6.9618
61.858	7.1566
63.388	7.3514
64.918	7.5462
66.448	7.7407
67.816	7.9352
68.299	8.1296
68.782	8.3241
69.265	8.5185
69.749	8.7130
70.263	8.9074
72.203	9.1022
74.144	9.2972
75.943	9.4921
77.298	9.6871
78.653	9.8820
75.708	9.9695
61.309	9.7727
59.444	9.5980
57.578	9.4052
55.712	9.2104
53.846	9.0156
51.981	8.8208
50.115	8.6260
48.665	8.4312
47.564	8.2364
46.463	8.0416
45.361	7.8468
44.260	7.6520
43.158	7.4572
42.057	7.2624
40.955	7.0676
39.854	6.8728
38.752	6.6780
37.651	6.4832
36.549	6.2884
35.448	6.0936
34.346	5.8989
33.245	5.7041
32.143	5.5093
31.042	5.3145
29.940	5.1197
28.839	4.9249
27.737	4.7301
26.636	4.5353
25.534	4.3405
24.433	4.1457
23.331	3.9509
22.230	3.7561
21.129	3.5613
20.027	3.3665
18.926	3.1717
17.824	2.9769
16.723	2.7821
15.621	2.5873
14.520	2.3925
13.418	2.1977
12.317	2.0028
11.215	1.8080
10.114	1.6131
9.0123	1.4183
7.9228	1.2234
6.8583	1.0286
5.7938	0.83373
4.7292	0.63889
3.6647	0.44404
2.6002	0.24919
1.5357	0.054344
0.47116	-0.14050
-0.59336	-0.33535
-1.6579	-0.53020
-2.7224	-0.72504
-3.7869	-0.91989
-4.8514	-1.1147
-5.9160	-1.3096
-6.9805	-1.5044
-8.0450	-1.6988
-9.1095	-1.8930
-10.174	-2.0872
-11.239	-2.2815
-12.309	-2.4760
-13.385	-2.6705
-14.461	-2.8649
-15.537	-3.0594
-16.613	-3.2539
-17.689	-3.4484
-18.765	-3.6429
-19.841	-3.8374
-20.917	-4.0319
-21.994	-4.2264
-23.070	-4.4216
-24.146	-4.6170
-25.222	-4.8124
-26.298	-5.0077
-27.374	-5.2027
-28.450	-5.3972
-29.526	-5.5916
-30.594	-5.7860
-31.660	-5.9804
-32.726	-6.1748
-33.792	-6.3692
-34.858	-6.5636
-35.925	-6.7581
-36.991	-6.9530
-38.057	-7.1478
-39.123	-7.3426
-40.189	-7.5375
-41.255	-7.7323
-42.321	-7.9271
-43.387	-8.1220
-44.454	-8.3168
-45.520	-8.5116
-46.586	-8.7065
-47.652	-8.9013
-48.718	-9.0961
-49.784	-9.2910
-50.850	-9.4858
-51.916	-9.6806
-52.982	-9.8755
-52.653	-9.9771
-30.803	-9.7872
-30.519	-9.7598