File: text_data/C10.txt
Load (N)	Extension (mm)

39.894	3.5931
39.935	3.5931
28.788	3.3862
22.345	2.8419
18.707	2.2929
15.067	1.7451
11.894	1.1998
8.7211	0.65306
5.5483	0.10697
5.2822	-0.11150
0.76998	-0.60092
-2.3008	-1.1461
-5.3716	-1.6914
-8.4423	-2.2366
-11.513	-2.7819
-14.584	-3.3271
-17.655	-3.8723
-20.725	-4.4176
-23.796	-4.9628
-26.867	-5.5080
-29.938	-6.0530
-33.009	-6.5976
-36.079	-7.1423
-39.150	-7.6870
-42.221	-8.2320
-45.292	-8.7773
-48.362	-9.3227
-49.800	-9.8680
-52.783	-10.413
-55.767	-10.959
-58.751	-11.504
-61.735	-12.049
-64.719	-12.595
-67.702	-13.140
-70.749	-13.685
-74.231	-14.230
-77.701	-14.775
-81.019	-15.320
-84.337	-15.864
-87.741	-16.409
-91.181	-16.954
-94.622	-17.498
-97.985	-18.043
-101.24	-18.588
-104.49	-19.132
-107.74	-19.679
-111.23	-20.224
-114.96	-20.769
-118.86	-21.314
-122.84	-21.859
-126.65	-22.404
-130.49	-22.948
-145.92	-23.493
-315.49	-24.032
-527.83	-24.450
-295.75	-24.166
-125.14	-23.633
-84.793	-23.088
-66.945	-22.543
-64.693	-21.999
-62.440	-21.454
-60.187	-20.909
-57.934	-20.364
-71.010	-19.819
-68.652	-19.276
-66.295	-18.732
-63.937	-18.187
-58.622	-17.641
-56.149	-17.096
-54.221	-16.551
-51.884	-16.006
-47.912	-15.461
-45.759	-14.916
-44.787	-14.372
-39.743	-13.827
-36.552	-13.282
-34.785	-12.737
-31.870	-12.192
-28.594	-11.647
-25.952	-11.101
-25.198	-10.556
-19.858	-10.011
-17.927	-9.4658
-16.256	-8.9206
-13.960	-8.3740
-8.7205	-7.8288
-7.1982	-7.2836
-7.4769	-6.7384
-2.1359	-6.1932
0.65102	-5.6454
0.76710	-5.1014
4.2638	-4.5575
9.6077	-4.0136
10.689	-3.4691
11.740	-2.9242
17.814	-2.3793
19.373	-1.8344
20.593	-1.2895
22.963	-0.73742
26.852	-0.19686
27.988	0.34590
30.150	0.89098
35.230	1.4361
36.334	1.9812
37.439	2.5262
43.309	3.0713
46.009	3.6164
47.141	4.1615
50.113	4.7068
53.437	5.2521
56.475	5.7974
60.324	6.3427
61.671	6.8833
63.906	7.4360
68.610	7.9771
71.292	8.5222
72.531	9.0672
76.697	9.6123
80.544	10.157
81.319	10.702
84.867	11.247
90.779	11.793
91.999	12.338
92.894	12.883
97.999	13.428
103.05	13.973
102.91	14.519
106.44	15.064
111.84	15.609
114.75	16.154
116.91	16.700
120.28	17.245
125.69	17.790
127.84	18.336
130.75	18.881
137.44	19.426
139.75	19.972
142.07	20.517
149.40	21.062
152.47	21.608
155.17	22.152
159.72	22.697
168.66	23.241
170.01	23.786
172.02	24.331
181.11	24.877
186.50	25.422
187.91	25.967
191.63	26.512
201.72	27.057
207.52	27.603
210.27	28.148
216.63	28.693
227.49	29.238
231.46	29.783
234.28	30.328
242.06	30.870
252.51	31.415
258.40	31.961
267.40	32.507
280.84	33.052
294.31	33.597
307.50	34.142
320.93	34.687
336.02	35.232
348.03	35.773
363.33	36.318
389.04	36.862
416.98	37.407
457.19	37.951
409.54	38.106
319.41	37.586
271.67	37.041
246.06	36.496
236.30	35.951
226.55	35.406
216.79	34.861
207.03	34.316
199.51	33.771
197.86	33.225
192.78	32.680
187.70	32.135
182.62	31.590
177.54	31.045
172.46	30.500
167.66	29.955
163.37	29.410
159.07	28.864
154.78	28.319
150.49	27.774
146.19	27.229
142.45	26.684
138.81	26.139
135.17	25.594
131.52	25.049
127.88	24.503
124.24	23.960
120.60	23.415
116.95	22.869
113.31	22.326
109.85	21.777
106.47	21.233
103.09	20.688
99.705	20.144
96.324	19.599
92.944	19.054
89.563	18.510
86.183	17.964
82.802	17.419
79.533	16.874
76.368	16.328
73.204	15.783
70.039	15.238
66.877	14.694
63.734	14.150
60.591	13.603
57.448	13.058
54.305	12.512
51.162	11.967
48.019	11.422
44.876	10.876
41.733	10.331
38.590	9.7860
35.588	9.2408
32.599	8.6956
29.610	8.1504
26.621	7.6051
23.632	7.0600
20.643	6.5151
17.654	5.9701
14.665	5.4252
11.677	4.8802
8.6879	4.3353
5.7009	3.7904
2.7138	3.2455
-0.27319	2.7006
-3.2602	2.1558
-6.1974	1.6109
-9.0571	1.0660
-11.917	0.52011
-14.777	-0.027386
-17.636	-0.57241
-20.496	-1.1174
-23.356	-1.6624
-26.216	-2.2075
-29.075	-2.7525
-31.935	-3.2976
-34.850	-3.8427
-37.813	-4.3878
-40.777	-4.9329
-43.740	-5.4779
-47.116	-6.0229
-50.315	-6.5680
-52.692	-7.1130
-55.386	-7.6580
-58.080	-8.2031
-61.044	-8.7483
-64.192	-9.2937
-67.340	-9.8391
-70.488	-10.385
-73.636	-10.930
-76.916	-11.475
-80.310	-12.021
-83.720	-12.566
-87.131	-13.111
-90.541	-13.656
-94.663	-14.201
-98.873	-14.746
-103.08	-15.291
-107.15	-15.835
-111.21	-16.379
-115.27	-16.924
-119.50	-17.469
-123.82	-18.014
-128.25	-18.558
-132.58	-19.103
-136.60	-19.648
-140.62	-20.193
-147.20	-20.738
-153.09	-21.283
-161.09	-21.828
-179.33	-22.373
-200.53	-22.918
-256.33	-23.462
-361.00	-24.002
-469.29	-24.345
-332.64	-24.202