File: text_data/C2 - 10.txt
Load (N)	Extension (mm)

5.1131
5.1287	0.055847
5.1442	0.055847
5.1597	0.055847
5.1753	0.055847
3.0033	-0.021265
3.7351	0.0080536
4.1872	0.039541
2.9423	-0.039716
0.88452	-0.20577
-1.1732	-0.38467
-2.2612	-0.56884
-3.2235	-0.75303
-4.1857	-0.93762
-5.1480	-1.1222
-6.1102	-1.3065
-7.0725	-1.4918
-8.0348	-1.6764
-8.9970	-1.8614
-9.9593	-2.0440
-10.922	-2.2277
-11.884	-2.4114
-12.846	-2.5951
-13.808	-2.7787
-14.771	-2.9624
-15.733	-3.1461
-16.695	-3.3297
-17.657	-3.5134
-18.620	-3.6971
-19.582	-3.8808
-20.544	-4.0644
-21.506	-4.2477
-22.469	-4.4308
-23.431	-4.6139
-24.393	-4.7971
-25.355	-4.9802
-26.318	-5.1634
-27.280	-5.3465
-28.242	-5.5296
-29.204	-5.7128
-30.167	-5.8959
-31.129	-6.0791
-32.091	-6.2622
-33.053	-6.4453
-34.016	-6.6285
-34.978	-6.8116
-35.940	-6.9948
-36.902	-7.1779
-37.865	-7.3611
-38.827	-7.5442
-39.789	-7.7273
-40.751	-7.9105
-41.714	-8.0936
-42.676	-8.2767
-43.638	-8.4599
-44.600	-8.6430
-45.563	-8.8261
-46.525	-9.0093
-47.487	-9.1924
-48.449	-9.3752
-49.412	-9.5579
-50.374	-9.7405
-51.336	-9.9232
-49.691	-10.015
-48.422	-10.004
-44.958	-9.9292
-43.382	-9.7639
-41.806	-9.5806
-40.229	-9.3974
-38.653	-9.2142
-37.292	-9.0309
-36.395	-8.8477
-35.499	-8.6645
-34.603	-8.4812
-33.707	-8.2980
-32.811	-8.1148
-31.915	-7.9315
-31.019	-7.7483
-30.123	-7.5650
-29.227	-7.3818
-28.331	-7.1986
-27.435	-7.0153
-26.539	-6.8321
-25.643	-6.6489
-24.747	-6.4656
-23.850	-6.2824
-22.954	-6.0992
-22.058	-5.9159
-21.162	-5.7327
-20.266	-5.5495
-19.463	-5.3662
-18.661	-5.1830
-17.859	-4.9998
-17.057	-4.8165
-16.156	-4.6333
-15.244	-4.4500
-14.332	-4.2668
-13.420	-4.0836
-12.508	-3.9003
-11.596	-3.7171
-10.684	-3.5339
-9.7725	-3.3506
-8.8606	-3.1674
-7.9487	-2.9842
-7.0368	-2.8023
-6.1249	-2.6197
-5.2357	-2.4364
-4.3508	-2.2530
-3.4658	-2.0697
-2.5808	-1.8864
-1.6958	-1.7031
-0.81084	-1.5197
0.074141	-1.3364
0.95912	-1.1531
1.8441	-0.96997
2.7291	-0.78680
3.4876	-0.60363
4.3805	-0.42046
5.6384	-0.23729
6.7875	-0.054126
7.5134	0.12904
8.2393	0.31221
8.9652	0.49538
9.6910	0.67854
10.573	0.86171
11.662	1.0449
12.750	1.2280
13.992	1.4112
14.877	1.5944
15.762	1.7776
16.648	1.9607
17.533	2.1439
18.418	2.3271
19.303	2.5103
20.188	2.6935
21.235	2.8767
22.433	3.0599
23.632	3.2431
24.502	3.4263
25.115	3.6095
25.728	3.7927
26.341	3.9759
27.067	4.1591
28.151	4.3424
29.235	4.5256
30.319	4.7088
31.403	4.8920
32.487	5.0752
33.571	5.2584
34.655	5.4418
35.550	5.6256
36.377	5.8094
37.205	5.9926
38.032	6.1757
38.859	6.3589
39.714	6.5420
41.058	6.7252
42.402	6.9083
43.426	7.0915
44.189	7.2746
44.952	7.4578
45.715	7.6409
46.478	7.8241
47.241	8.0072
48.004	8.1848
49.062	8.3771
50.227	8.5598
51.393	8.7424
52.541	8.9251
53.523	9.1078
54.504	9.2905
55.459	9.4731
56.245	9.6558
57.031	9.8385
57.817	10.004
51.682	9.8350
49.412	9.6677
47.433	9.5005
46.452	9.3174
45.471	9.1342
44.490	8.9510
43.509	8.7678
42.528	8.5846
41.547	8.4014
40.566	8.2182
39.585	8.0350
38.604	7.8519
37.623	7.6687
36.642	7.4855
35.661	7.3023
34.680	7.1191
33.698	6.9359
32.717	6.7527
31.736	6.5695
30.755	6.3863
29.774	6.2032
28.793	6.0200
27.812	5.8368
26.831	5.6536
25.850	5.4704
24.869	5.2872
23.888	5.1040
22.907	4.9208
21.926	4.7377
20.945	4.5545
19.958	4.3713
18.801	4.1881
17.644	4.0049
16.659	3.8217
15.728	3.6385
14.797	3.4553
13.866	3.2721
12.936	3.0890
12.005	2.9058
11.074	2.7226
10.143	2.5394
9.2119	2.3562
8.2810	2.1730
7.3501	1.9898
6.4192	1.8066
5.4883	1.6234
4.5574	1.4403
3.6265	1.2485
2.6956	1.0655
1.7647	0.88253
0.83382	0.69954
-0.097082	0.51655
-1.0280	0.33356
-1.9589	0.15057
-2.8898	-0.032424
-3.8207	-0.21541
-4.7516	-0.39841
-5.6825	-0.58140
-6.6134	-0.76439
-7.5443	-0.94743
-8.4752	-1.1305
-9.4061	-1.3135
-10.337	-1.4966
-11.268	-1.6796
-12.199	-1.8627
-13.130	-2.0458
-14.061	-2.2288
-14.991	-2.4121
-15.922	-2.5956
-16.853	-2.7791
-17.788	-2.9627
-18.725	-3.1462
-19.663	-3.3297
-20.601	-3.5133
-21.539	-3.6968
-22.477	-3.8803
-23.415	-4.0639
-24.353	-4.2474
-25.291	-4.4306
-26.229	-4.6138
-27.167	-4.7970
-28.105	-4.9802
-29.043	-5.1634
-29.981	-5.3466
-30.919	-5.5298
-31.857	-5.7130
-32.795	-5.8962
-33.733	-6.0794
-34.671	-6.2626
-35.609	-6.4458
-36.547	-6.6290
-37.485	-6.8122
-38.562	-6.9954
-39.594	-7.1786
-40.582	-7.3618
-41.570	-7.5450
-42.558	-7.7282
-43.546	-7.9114
-44.534	-8.0946
-45.522	-8.2778
-46.509	-8.4610
-47.497	-8.6442
-48.487	-8.8272
-49.478	-9.0103
-50.470	-9.1934
-51.461	-9.3764
-52.453	-9.5595
-53.444	-9.7426
-54.436	-9.9256
-49.916	-9.9621
-42.394	-9.7936