File: text_data/C2.txt
Load (N)	Extension (mm)

5.2144	0.058277
5.2366	0.058183
2.1180	-0.014438
3.6446	-0.053487
-3.2479	-0.56789
-6.0432	-1.1025
-8.8385	-1.6369
-11.634	-2.1684
-14.429	-2.6979
-17.224	-3.2279
-20.020	-3.7588
-22.815	-4.2896
-25.610	-4.8191
-28.406	-5.3486
-31.201	-5.8780
-33.996	-6.4075
-36.792	-6.9370
-39.587	-7.4665
-42.382	-7.9963
-44.640	-8.5262
-47.160	-9.0561
-50.031	-9.5858
-52.902	-10.115
-55.773	-10.645
-58.644	-11.175
-61.515	-11.705
-64.087	-12.234
-66.989	-12.764
-70.084	-13.294
-73.399	-13.823
-76.715	-14.353
-80.030	-14.883
-83.346	-15.412
-86.717	-15.942
-90.241	-16.472
-94.295	-17.001
-98.326	-17.531
-102.26	-18.060
-106.01	-18.589
-110.01	-19.118
-114.41	-19.646
-119.22	-20.177
-124.98	-20.708
-135.67	-21.237
-163.87	-21.764
-285.37	-22.290
-530.47	-22.775
-391.95	-22.574
-170.41	-22.057
-111.44	-21.528
-108.32	-20.999
-105.21	-20.469
-102.09	-19.940
-98.974	-19.411
-95.858	-18.882
-77.664	-18.352
-75.039	-17.823
-72.413	-17.294
-69.788	-16.765
-67.162	-16.235
-64.751	-15.706
-62.487	-15.177
-60.242	-14.647
-58.231	-14.118
-56.219	-13.588
-53.971	-13.058
-51.223	-12.528
-48.516	-11.998
-45.914	-11.468
-43.312	-10.938
-40.709	-10.409
-38.592	-9.8792
-36.954	-9.3497
-34.888	-8.8201
-32.453	-8.2906
-30.017	-7.7610
-27.582	-7.2315
-25.146	-6.7019
-22.588	-6.1723
-19.910	-5.6428
-17.315	-5.1132
-14.757	-4.5820
-12.198	-4.0516
-9.6342	-3.5223
-7.0705	-2.9929
-4.5449	-2.4635
-2.0237	-1.9341
0.49745	-1.4050
3.0186	-0.87588
5.5398	-0.34675
8.0488	0.18289
10.553	0.71236
13.057	1.2413
15.561	1.7703
18.071	2.2998
20.619	2.8307
23.166	3.3615
25.717	3.8911
28.268	4.4208
30.820	4.9505
33.392	5.4801
36.187	6.0097
38.982	6.5393
41.777	7.0688
44.571	7.5984
47.366	8.1280
50.161	8.6593
53.191	9.1804
56.233	9.7118
58.659	10.243
62.875	10.774
65.643	11.303
68.183	11.833
71.573	12.362
75.798	12.892
78.928	13.421
81.868	13.951
84.808	14.480
87.748	15.010
90.688	15.539
93.627	16.069
96.391	16.601
99.111	17.130
102.18	17.659
106.18	18.189
111.06	18.718
112.89	19.247
115.45	19.777
120.81	20.306
126.40	20.836
128.73	21.366
130.36	21.897
134.69	22.427
142.25	22.957
144.43	23.486
146.45	24.016
151.83	24.546
158.74	25.075
162.60	25.605
166.46	26.135
172.21	26.664
179.19	27.195
183.54	27.725
187.88	28.254
194.79	28.784
202.24	29.313
206.69	29.843
211.61	30.373
220.16	30.902
229.11	31.432
234.50	31.961
240.06	32.491
250.57	33.020
260.28	33.549
267.80	34.078
278.40	34.607
291.65	35.136
303.96	35.665
313.92	36.194
323.88	36.724
331.94	37.253
347.92	37.782
366.46	38.312
383.95	38.841
418.45	39.370
454.44	39.897
439.85	40.150
333.57	39.635
286.82	39.106
269.66	38.577
253.15	38.047
241.26	37.518
231.38	36.989
222.99	36.459
215.72	35.930
208.63	35.400
202.76	34.871
196.89	34.342
191.25	33.812
186.35	33.283
181.46	32.753
176.56	32.224
172.32	31.690
168.08	31.161
163.84	30.631
159.63	30.102
155.80	29.572
151.98	29.042
148.16	28.512
144.33	27.983
140.52	27.453
137.02	26.923
133.52	26.393
130.01	25.863
126.57	25.333
123.23	24.804
119.90	24.275
116.56	23.749
113.23	23.215
109.89	22.685
106.68	22.156
103.53	21.626
100.38	21.096
97.224	20.566
94.071	20.037
90.919	19.507
87.766	18.977
84.614	18.447
81.552	17.917
78.523	17.387
75.495	16.857
72.467	16.327
69.485	15.798
66.510	15.272
63.582	14.743
60.686	14.213
57.700	13.682
54.709	13.151
51.627	12.621
48.524	12.091
45.422	11.561
42.324	11.032
39.308	10.502
36.292	9.9741
33.276	9.4442
30.260	8.9144
27.244	8.3845
24.228	7.8548
21.212	7.3251
18.196	6.7955
16.115	6.2659
13.148	5.7363
10.181	5.2067
7.2139	4.6775
4.2076	4.1483
1.1846	3.6190
-1.8383	3.0898
-4.8613	2.5606
-7.8843	2.0313
-10.792	1.5021
-13.643	0.97288
-16.751	0.44019
-20.016	-0.089062
-22.979	-0.61831
-25.426	-1.1476
-28.423	-1.6775
-31.578	-2.2067
-34.733	-2.7368
-37.888	-3.2668
-41.043	-3.7963
-44.012	-4.3257
-46.751	-4.8551
-50.078	-5.3847
-53.405	-5.9144
-56.732	-6.4441
-60.060	-6.9739
-63.344	-7.5036
-66.589	-8.0334
-69.963	-8.5631
-73.999	-9.0926
-78.035	-9.6216
-81.932	-10.151
-85.449	-10.680
-89.285	-11.209
-93.122	-11.739
-96.959	-12.271
-100.80	-12.801
-104.63	-13.330
-108.23	-13.860
-111.65	-14.390
-115.53	-14.920
-120.31	-15.449
-123.69	-15.979
-128.23	-16.508
-132.18	-17.038
-135.47	-17.567
-140.57	-18.096
-145.66	-18.626
-150.76	-19.155
-157.05	-19.685
-164.04	-20.214
-174.66	-20.743
-200.11	-21.272
-274.44	-21.800
-369.96	-22.326
-475.98	-22.662
-336.64	-22.520