File: text_data/C3-10.txt
Load (N)	Extension (mm)

-3.3060	-1.1237
-3.2954	-1.1237
-3.2847	-1.1237
-3.2741	-1.1237
-3.2635	-1.1237
-0.87121	-1.0343
-0.20252	-0.86057
0.46618	-0.67333
1.6437	-0.48554
3.5025	-0.29592
4.0742	-0.10667
4.6460	0.076793
2.0686	0.072246
1.8040	0.068834
1.0828	-0.084479
-0.030455	-0.26274
-1.1437	-0.44639
-2.2570	-0.63207
-3.3703	-0.81808
-4.4836	-1.0041
-5.5969	-1.1936
-6.7102	-1.3823
-7.8234	-1.5682
-8.9367	-1.7540
-9.9746	-1.9400
-10.941	-2.1281
-11.908	-2.3162
-12.874	-2.5043
-13.841	-2.6924
-14.808	-2.8805
-15.774	-3.0685
-16.741	-3.2562
-17.708	-3.4433
-18.674	-3.6304
-19.641	-3.8175
-20.607	-4.0045
-21.574	-4.1916
-22.541	-4.3786
-23.507	-4.5655
-24.474	-4.7524
-25.440	-4.9393
-26.407	-5.1262
-27.374	-5.3131
-28.340	-5.5000
-29.307	-5.6869
-30.273	-5.8738
-31.240	-6.0607
-32.207	-6.2476
-33.173	-6.4344
-34.300	-6.6213
-35.549	-6.8082
-36.606	-6.9951
-37.662	-7.1820
-38.719	-7.3692
-39.776	-7.5564
-40.833	-7.7436
-41.890	-7.9308
-42.947	-8.1181
-44.004	-8.3053
-45.060	-8.4925
-46.117	-8.6797
-47.174	-8.8670
-48.231	-9.0542
-49.288	-9.2414
-50.345	-9.4286
-51.401	-9.6159
-52.458	-9.8039
-53.515	-9.9922
-46.230	-10.008
-46.784	-10.001
-43.585	-9.8311
-42.587	-9.6531
-41.700	-9.4751
-40.813	-9.2884
-39.926	-9.1013
-39.040	-8.9142
-38.153	-8.7270
-37.266	-8.5399
-36.379	-8.3528
-35.492	-8.1657
-34.606	-7.9786
-33.719	-7.7914
-32.832	-7.6043
-31.945	-7.4172
-31.116	-7.2301
-30.325	-7.0430
-29.535	-6.8558
-28.744	-6.6687
-27.954	-6.4816
-27.110	-6.2945
-26.243	-6.1074
-25.376	-5.9202
-24.509	-5.7331
-23.642	-5.5460
-22.775	-5.3589
-21.908	-5.1717
-21.041	-4.9846
-20.174	-4.7975
-19.307	-4.6104
-18.372	-4.4233
-17.402	-4.2361
-16.432	-4.0490
-15.462	-3.8619
-14.492	-3.6748
-13.522	-3.4877
-12.552	-3.3005
-11.651	-3.1134
-10.809	-2.9263
-9.9670	-2.7392
-9.1247	-2.5521
-8.2825	-2.3649
-7.3794	-2.1778
-6.4665	-1.9907
-5.5360	-1.8037
-4.5300	-1.6168
-3.5241	-1.4298
-2.5181	-1.2428
-1.5122	-1.0558
-0.50622	-0.86879
0.39912	-0.68180
1.2858	-0.49470
2.1724	-0.30760
3.0590	-0.12049
3.9457	0.066616
4.8323	0.25372
5.8447	0.44083
6.8830	0.62793
7.9214	0.81504
8.9597	1.0021
9.9981	1.1893
11.036	1.3763
12.038	1.5633
13.032	1.7502
14.026	1.9371
15.019	2.1240
16.013	2.3109
17.006	2.4979
18.039	2.6848
19.101	2.8717
20.163	3.0586
21.225	3.2455
22.224	3.4324
23.177	3.6194
24.130	3.8063
25.083	3.9932
26.035	4.1804
26.988	4.3692
27.941	4.5563
28.893	4.7435
29.846	4.9306
30.799	5.1178
31.751	5.3049
32.676	5.4921
33.565	5.6792
34.453	5.8663
35.341	6.0535
36.229	6.2406
37.117	6.4278
37.985	6.6149
38.825	6.7984
39.665	6.9838
40.504	7.1710
41.494	7.3531
43.156	7.5511
44.817	7.7338
45.531	7.9165
46.200	8.1022
46.870	8.2897
47.540	8.4773
48.210	8.6648
48.968	8.8524
50.179	9.0399
51.390	9.2274
52.601	9.4150
53.812	9.6025
54.980	9.7900
55.148	9.9776
51.138	9.8830
48.912	9.7089
46.998	9.5344
45.999	9.3474
45.000	9.1604
44.001	8.9734
43.002	8.7864
42.003	8.5994
41.004	8.4124
40.005	8.2254
39.005	8.0384
38.006	7.8514
37.007	7.6644
36.008	7.4774
35.009	7.2904
34.010	7.1035
33.011	6.9165
32.012	6.7295
31.013	6.5425
30.014	6.3555
29.015	6.1685
28.016	5.9815
27.017	5.7945
26.018	5.6075
25.019	5.4205
24.020	5.2335
23.021	5.0465
22.022	4.8595
21.023	4.6725
20.024	4.4855
19.025	4.2985
18.026	4.1115
17.027	3.9245
16.028	3.7375
15.029	3.5505
14.046	3.3635
13.063	3.1765
12.081	2.9895
11.098	2.8025
10.116	2.6155
9.1332	2.4286
8.1506	2.2416
7.1681	2.0546
6.1856	1.8676
5.2030	1.6806
4.2205	1.4936
3.2379	1.3066
2.2554	1.1196
1.2729	0.93258
0.29031	0.73942
-0.69223	0.55251
-1.6748	0.36560
-2.6573	0.17870
-3.6399	-0.0082124
-4.6224	-0.19512
-5.6049	-0.38203
-6.5875	-0.56894
-7.5700	-0.75584
-8.5526	-0.94275
-9.5351	-1.1297
-10.518	-1.3166
-11.500	-1.5035
-12.483	-1.6886
-13.465	-1.8738
-14.457	-2.0608
-15.457	-2.2479
-16.457	-2.4349
-17.457	-2.6220
-18.456	-2.8090
-19.456	-2.9960
-20.456	-3.1831
-21.456	-3.3701
-22.456	-3.5571
-23.455	-3.7442
-24.455	-3.9312
-25.455	-4.1183
-26.455	-4.3053
-27.455	-4.4923
-28.454	-4.6794
-29.454	-4.8664
-30.454	-5.0534
-31.454	-5.2405
-32.453	-5.4275
-33.453	-5.6146
-34.457	-5.8016
-35.465	-5.9886
-36.472	-6.1757
-37.480	-6.3627
-38.487	-6.5498
-39.495	-6.7368
-40.502	-6.9238
-41.510	-7.1109
-42.517	-7.2980
-43.532	-7.4852
-44.560	-7.6723
-45.587	-7.8595
-46.615	-8.0466
-47.642	-8.2338
-48.670	-8.4209
-50.088	-8.6081
-51.216	-8.7952
-52.287	-8.9824
-53.358	-9.1695
-54.429	-9.3567
-55.500	-9.5438
-56.571	-9.7310
-57.643	-9.9181
-51.943	-9.9543
-42.536	-9.7901