File: text_data/C3.txt
Load (N)	Extension (mm)

1.5135	-0.34454
1.5944	-0.34454
3.5454	-0.22319
4.3302	0.10318
0.79929	-0.20977
-3.1522	-0.72402
-6.8632	-1.2470
-10.574	-1.7698
-14.285	-2.2915
-17.996	-2.8110
-21.678	-3.3283
-25.205	-3.8457
-28.732	-4.3641
-32.259	-4.8831
-35.786	-5.4021
-39.313	-5.9207
-42.839	-6.4393
-46.366	-6.9578
-49.893	-7.4763
-53.420	-7.9947
-57.087	-8.5132
-60.526	-9.0316
-63.649	-9.5495
-66.758	-10.067
-70.015	-10.585
-73.480	-11.103
-76.946	-11.621
-80.411	-12.139
-83.877	-12.657
-87.476	-13.175
-91.436	-13.693
-95.298	-14.211
-97.646	-14.731
-101.42	-15.250
-105.19	-15.767
-108.96	-16.285
-112.74	-16.803
-116.51	-17.322
-120.28	-17.840
-124.06	-18.358
-127.83	-18.876
-131.60	-19.395
-135.37	-19.913
-139.94	-20.431
-144.74	-20.949
-152.61	-21.467
-169.37	-21.984
-212.29	-22.502
-257.85	-23.019
-390.05	-23.532
-516.43	-23.827
-262.05	-23.447
-129.96	-22.932
-113.01	-22.417
-100.06	-21.902
-97.767	-21.385
-95.469	-20.867
-93.171	-20.348
-90.874	-19.830
-88.576	-19.312
-86.278	-18.794
-83.980	-18.276
-81.683	-17.758
-79.385	-17.239
-77.087	-16.721
-74.789	-16.203
-68.397	-15.684
-66.145	-15.165
-63.892	-14.647
-61.639	-14.129
-59.386	-13.610
-57.133	-13.092
-54.816	-12.574
-50.941	-12.055
-49.210	-11.537
-46.727	-11.019
-44.030	-10.500
-41.442	-9.9826
-39.528	-9.4649
-36.664	-8.9472
-33.976	-8.4293
-31.874	-7.9110
-29.667	-7.3927
-26.414	-6.8744
-23.584	-6.3561
-21.151	-5.8380
-18.718	-5.3202
-16.285	-4.8024
-13.783	-4.2847
-11.268	-3.7633
-8.7526	-3.2454
-6.2375	-2.7275
-3.2709	-2.2096
-0.98509	-1.6917
1.2424	-1.1732
4.0743	-0.65114
6.3096	-0.13666
8.0525	0.38147
10.189	0.89961
12.943	1.4177
15.697	1.9359
18.451	2.4540
21.293	2.9721
24.041	3.4903
26.540	4.0084
29.225	4.5314
32.535	5.0487
35.858	5.5661
38.550	6.0840
40.381	6.6019
43.050	7.1197
46.021	7.6376
49.865	8.1555
51.472	8.6734
54.264	9.1944
57.155	9.7118
61.464	10.229
63.073	10.747
65.608	11.265
68.420	11.793
71.418	12.300
74.417	12.819
77.515	13.337
81.375	13.855
84.554	14.374
87.396	14.892
90.234	15.410
92.797	15.929
95.359	16.447
97.922	16.965
101.65	17.483
105.31	18.001
109.57	18.519
113.53	19.037
117.43	19.555
121.33	20.075
125.79	20.594
128.84	21.112
132.38	21.630
136.89	22.148
142.39	22.667
145.01	23.185
149.77	23.703
155.12	24.221
160.18	24.739
162.60	25.257
166.98	25.775
173.50	26.294
180.18	26.811
182.94	27.329
188.63	27.847
196.76	28.365
204.06	28.883
209.38	29.402
214.70	29.920
224.65	30.439
231.09	30.957
237.53	31.475
248.34	31.993
265.93	32.511
279.53	33.029
294.78	33.546
315.42	34.063
339.05	34.580
365.48	35.096
384.43	35.613
425.08	36.130
465.73	36.647
421.42	36.695
313.18	36.182
269.47	35.664
243.42	35.145
228.14	34.627
213.86	34.109
204.86	33.591
195.87	33.073
188.96	32.555
182.49	32.036
177.37	31.518
172.71	31.000
168.06	30.482
163.53	29.964
159.50	29.446
155.46	28.929
151.42	28.411
147.46	27.892
143.81	27.374
140.16	26.856
136.51	26.338
132.95	25.820
129.58	25.302
126.21	24.784
122.84	24.265
119.48	23.745
116.11	23.227
112.74	22.709
109.48	22.191
106.31	21.672
103.14	21.154
99.973	20.636
96.803	20.118
93.633	19.599
90.463	19.081
87.293	18.563
84.216	18.045
81.179	17.526
78.142	17.008
75.105	16.490
72.068	15.972
69.033	15.453
66.010	14.936
62.987	14.418
60.001	13.901
57.069	13.381
54.136	12.863
51.204	12.344
48.271	11.826
45.338	11.307
42.406	10.789
39.473	10.271
36.540	9.7521
33.608	9.2336
30.675	8.7151
28.069	8.1969
25.090	7.6786
22.157	7.1604
19.294	6.6421
16.431	6.1239
13.568	5.6057
10.705	5.0874
7.8418	4.5692
4.9788	4.0509
2.6778	3.5327
-0.40812	3.0144
-3.4941	2.4961
-6.3684	1.9778
-9.2414	1.4595
-11.951	0.94118
-14.694	0.42287
-17.655	-0.095438
-20.605	-0.61375
-23.552	-1.1321
-26.499	-1.6504
-29.446	-2.1686
-33.052	-2.6869
-36.244	-3.2051
-39.021	-3.7234
-42.027	-4.2428
-45.564	-4.7620
-47.852	-5.2805
-51.028	-5.7990
-54.319	-6.3174
-57.648	-6.8359
-60.391	-7.3543
-62.840	-7.8699
-65.564	-8.3879
-68.287	-8.9060
-71.253	-9.4241
-74.404	-9.9422
-77.554	-10.460
-80.705	-10.978
-83.855	-11.497
-87.005	-12.015
-90.156	-12.533
-93.316	-13.051
-97.213	-13.570
-101.11	-14.089
-104.61	-14.609
-108.03	-15.127
-111.45	-15.645
-114.88	-16.163
-118.30	-16.681
-122.34	-17.199
-126.49	-17.717
-130.63	-18.236
-135.64	-18.754
-139.03	-19.272
-144.03	-19.790
-149.65	-20.308
-155.69	-20.825
-166.45	-21.343
-186.32	-21.861
-221.90	-22.378
-261.00	-22.895
-348.22	-23.411
-456.53	-23.707
-341.36	-23.572