File: text_data/C4 -10.txt
Load (N)	Extension (mm)

9.6235
9.6427	0.043945
9.6619	0.043945
9.6811	0.043945
9.7003	0.043945
9.7195	0.043945
3.7629	-0.080857
6.4111	-0.082324
7.1264	-0.11276
1.1908	-0.23470
-0.062277	-0.40414
-1.3153	-0.58839
-2.5684	-0.77264
-3.8215	-0.95689
-5.0745	-1.1414
-6.3276	-1.3260
-7.5807	-1.5105
-8.8337	-1.6943
-10.087	-1.8783
-11.340	-2.0649
-12.593	-2.2485
-13.762	-2.4308
-14.819	-2.6139
-15.876	-2.7976
-16.933	-2.9812
-17.990	-3.1643
-19.047	-3.3494
-20.104	-3.5315
-21.161	-3.7139
-22.218	-3.8963
-23.275	-4.0791
-24.332	-4.2622
-25.389	-4.4453
-26.446	-4.6284
-27.503	-4.8116
-28.560	-4.9947
-29.617	-5.1778
-30.674	-5.3609
-31.731	-5.5440
-32.788	-5.7272
-33.845	-5.9103
-34.902	-6.0934
-35.959	-6.2765
-37.016	-6.4597
-38.073	-6.6428
-39.130	-6.8259
-40.187	-7.0090
-41.244	-7.1922
-42.301	-7.3753
-43.348	-7.5619
-44.366	-7.7460
-45.383	-7.9288
-46.401	-8.1117
-47.418	-8.2945
-48.435	-8.4774
-49.453	-8.6603
-50.470	-8.8431
-51.488	-9.0260
-52.505	-9.2088
-53.523	-9.3917
-54.583	-9.5746
-55.735	-9.7574
-56.887	-9.9403
-51.976	-10.014
-46.605	-10.008
-41.831	-9.9345
-38.921	-9.7694
-36.111	-9.5862
-35.466	-9.4030
-34.820	-9.2197
-34.175	-9.0365
-33.530	-8.8533
-32.885	-8.6700
-32.240	-8.4868
-31.595	-8.3036
-30.950	-8.1203
-30.305	-7.9371
-29.660	-7.7538
-28.680	-7.5706
-27.623	-7.3874
-26.566	-7.2041
-25.509	-7.0209
-24.452	-6.8377
-23.395	-6.6544
-22.338	-6.4712
-21.281	-6.2880
-20.224	-6.1047
-19.167	-5.9215
-18.110	-5.7382
-16.117	-5.5550
-15.361	-5.3718
-14.605	-5.1885
-13.848	-5.0053
-13.092	-4.8221
-12.336	-4.6388
-11.580	-4.4556
-10.823	-4.2723
-10.067	-4.0891
-9.2760	-3.9059
-8.2365	-3.7226
-7.1969	-3.5394
-6.1574	-3.3562
-5.1178	-3.1729
-4.0782	-2.9897
-3.0387	-2.8065
-2.0586	-2.6232
-1.1317	-2.4400
-0.20477	-2.2567
0.72216	-2.0735
1.6491	-1.8903
2.5760	-1.7070
3.6747	-1.5238
4.8800	-1.3406
6.0854	-1.1573
7.2907	-0.97409
8.4960	-0.79085
9.7014	-0.60781
10.961	-0.42488
12.384	-0.24196
13.393	-0.059034
14.188	0.12389
14.983	0.30682
15.778	0.48974
16.573	0.67228
17.162	0.85453
17.723	1.0369
18.285	1.2206
18.846	1.4043
20.050	1.5877
21.422	1.7709
22.794	1.9542
24.166	2.1375
25.538	2.3208
26.231	2.5041
26.744	2.6874
27.257	2.8707
27.769	3.0539
28.282	3.2372
29.137	3.4205
30.678	3.6038
32.219	3.7871
33.661	3.9704
34.544	4.1537
35.427	4.3370
36.510	4.5203
37.438	4.7036
38.018	4.8869
38.599	5.0703
39.179	5.2536
40.006	5.4366
41.175	5.6192
42.343	5.8018
43.511	5.9843
44.646	6.1669
45.476	6.3498
46.306	6.5338
47.137	6.7178
47.967	6.9019
48.797	7.0859
49.627	7.2698
50.499	7.4527
52.140	7.6357
53.781	7.8187
54.998	8.0017
55.868	8.1794
56.737	8.3701
57.607	8.5528
58.477	8.7354
59.346	8.9181
60.216	9.1008
61.085	9.2834
61.998	9.4661
63.183	9.6487
64.367	9.8314
65.552	10.009
53.009	9.8555
50.404	9.6847
47.798	9.5054
45.668	9.3222
44.565	9.1390
43.461	8.9557
42.357	8.7725
41.254	8.5893
40.150	8.4060
39.046	8.2228
37.943	8.0396
36.839	7.8563
35.735	7.6731
34.631	7.4899
33.528	7.3066
32.424	7.1234
31.320	6.9402
30.217	6.7569
29.113	6.5737
28.009	6.3905
26.980	6.2072
25.981	6.0240
24.981	5.8408
23.982	5.6575
22.982	5.4743
21.982	5.2911
20.983	5.1078
19.983	4.9246
18.984	4.7414
17.984	4.5581
16.984	4.3749
15.985	4.1917
14.985	4.0085
13.985	3.8252
12.986	3.6420
11.986	3.4588
10.987	3.2755
9.9869	3.0923
8.9873	2.9091
7.9877	2.7258
6.9881	2.5426
5.9884	2.3594
4.9888	2.1761
3.9892	1.9928
2.9896	1.8095
1.9900	1.6262
0.99035	1.4429
-0.0092742	1.2596
-1.0089	1.0763
-2.0085	0.89306
-3.0081	0.70977
-4.0078	0.52649
-5.0994	0.34320
-6.2383	0.15991
-7.3593	-0.023372
-8.3854	-0.20666
-9.4115	-0.38995
-10.438	-0.57317
-11.464	-0.75638
-12.490	-0.93959
-13.516	-1.1228
-14.542	-1.3060
-15.568	-1.4892
-16.594	-1.6724
-17.620	-1.8556
-18.646	-2.0389
-19.672	-2.2222
-20.698	-2.4054
-21.681	-2.5887
-22.623	-2.7718
-23.564	-2.9548
-24.506	-3.1378
-25.448	-3.3208
-26.389	-3.5038
-27.331	-3.6868
-28.273	-3.8700
-29.214	-4.0531
-30.156	-4.2363
-31.097	-4.4195
-32.107	-4.6027
-33.130	-4.7859
-34.153	-4.9691
-35.176	-5.1523
-36.199	-5.3355
-37.222	-5.5187
-38.245	-5.7019
-39.268	-5.8850
-40.291	-6.0682
-41.314	-6.2514
-42.337	-6.4346
-43.360	-6.6178
-44.383	-6.8010
-45.406	-6.9842
-46.429	-7.1674
-47.452	-7.3506
-48.475	-7.5347
-49.498	-7.7186
-50.521	-7.9021
-51.544	-8.0856
-52.567	-8.2691
-53.590	-8.4526
-54.612	-8.6359
-55.615	-8.8191
-56.526	-9.0023
-57.437	-9.1855
-58.348	-9.3683
-59.260	-9.5509
-60.251	-9.7335
-61.288	-9.9162
-56.069	-9.9541
-37.729	-9.7849