File: text_data/C4.txt
Load (N)	Extension (mm)

9.7223	0.046387
9.7282	0.046387
7.9535	-0.066999
-0.80518	-0.38625
-4.4026	-0.91578
-7.4564	-1.4467
-10.510	-1.9781
-13.564	-2.5043
-16.618	-3.0339
-19.671	-3.5628
-22.725	-4.0915
-25.779	-4.6179
-28.833	-5.1442
-31.886	-5.6706
-34.940	-6.1973
-37.994	-6.7253
-41.048	-7.2533
-44.101	-7.7813
-47.155	-8.3093
-50.209	-8.8373
-53.414	-9.3617
-56.662	-9.8888
-59.835	-10.416
-62.965	-10.943
-65.543	-11.470
-68.517	-11.998
-71.722	-12.525
-74.771	-13.053
-77.741	-13.580
-80.711	-14.107
-83.680	-14.635
-86.650	-15.162
-90.283	-15.690
-93.589	-16.220
-96.672	-16.747
-99.755	-17.274
-102.84	-17.801
-105.92	-18.328
-109.00	-18.855
-111.73	-19.383
-115.33	-19.910
-119.29	-20.437
-124.14	-20.965
-136.81	-21.491
-150.19	-22.014
-206.99	-22.537
-379.14	-23.060
-512.77	-23.357
-300.26	-23.078
-134.97	-22.556
-122.65	-22.034
-111.55	-21.511
-100.46	-20.988
-84.523	-20.460
-81.245	-19.933
-78.361	-19.406
-75.935	-18.879
-73.510	-18.352
-71.084	-17.824
-67.388	-17.297
-65.222	-16.770
-63.056	-16.243
-60.057	-15.716
-56.920	-15.188
-55.394	-14.661
-53.094	-14.134
-49.360	-13.607
-46.642	-13.080
-45.142	-12.553
-43.102	-12.025
-39.378	-11.498
-36.347	-10.970
-35.206	-10.443
-32.218	-9.9155
-28.941	-9.3849
-26.897	-8.8592
-25.597	-8.3336
-21.556	-7.8066
-18.068	-7.2791
-16.566	-6.7516
-15.082	-6.2242
-10.992	-5.6967
-8.9234	-5.1691
-7.6145	-4.6414
-5.0443	-4.1133
-2.2194	-3.5860
-0.10592	-3.0587
2.1274	-2.5314
5.6492	-2.0041
8.4133	-1.4768
9.9885	-0.94946
12.178	-0.42216
15.148	0.10515
17.637	0.63093
19.836	1.1584
22.034	1.6858
24.951	2.2132
28.701	2.7407
30.460	3.2677
32.392	3.7946
35.830	4.3214
38.961	4.8483
40.605	5.3752
43.304	5.9025
46.445	6.4298
48.989	6.9571
51.738	7.4844
54.983	8.0117
57.616	8.5454
59.964	9.0660
63.061	9.5930
66.872	10.120
69.132	10.647
71.392	11.174
74.956	11.701
77.930	12.228
79.593	12.755
83.666	13.282
86.996	13.809
89.563	14.336
90.756	14.863
95.012	15.390
99.268	15.921
100.15	16.449
103.03	16.977
108.19	17.504
111.39	18.031
113.22	18.556
116.65	19.083
121.96	19.610
125.02	20.138
126.99	20.666
131.82	21.193
136.97	21.721
139.04	22.248
141.12	22.776
146.36	23.303
150.68	23.831
153.03	24.358
156.98	24.886
163.57	25.413
167.36	25.941
168.89	26.468
175.58	26.994
182.89	27.521
186.98	28.048
189.19	28.576
194.05	29.103
200.76	29.630
209.45	30.157
215.22	30.685
220.72	31.212
225.37	31.740
230.25	32.267
242.05	32.794
251.40	33.321
256.95	33.848
267.20	34.376
283.67	34.903
294.72	35.430
306.90	35.955
326.99	36.481
346.31	37.007
362.75	37.534
393.86	38.060
435.95	38.587
485.24	39.113
363.43	38.748
299.30	38.225
269.55	37.698
249.99	37.171
237.18	36.644
224.36	36.117
215.51	35.589
207.44	35.062
200.00	34.535
193.97	34.008
187.94	33.481
182.61	32.954
177.71	32.426
172.80	31.899
168.11	31.372
163.92	30.844
159.72	30.317
155.52	29.790
151.33	29.262
147.33	28.735
143.48	28.208
139.64	27.680
135.80	27.153
131.95	26.626
128.30	26.099
124.83	25.572
121.36	25.045
117.89	24.515
114.43	23.989
110.96	23.462
107.52	22.933
104.33	22.405
101.14	21.877
97.946	21.350
94.756	20.822
91.565	20.295
88.375	19.768
85.190	19.240
82.073	18.713
78.957	18.186
75.840	17.659
72.724	17.131
69.607	16.604
66.502	16.078
63.438	15.551
60.373	15.025
57.308	14.498
54.243	13.970
51.178	13.442
48.673	12.914
45.807	12.386
42.941	11.859
40.075	11.331
37.209	10.804
34.343	10.276
31.476	9.7487
28.610	9.2216
25.744	8.6949
22.878	8.1682
20.012	7.6414
17.146	7.1147
14.280	6.5880
11.413	6.0574
8.6189	5.5301
5.9002	5.0028
3.1815	4.4755
0.46287	3.9482
-2.2558	3.4209
-4.9745	2.8936
-7.6931	2.3663
-10.412	1.8390
-13.130	1.3117
-15.851	0.78446
-18.893	0.25717
-21.781	-0.27012
-24.616	-0.79741
-27.451	-1.3247
-30.286	-1.8521
-32.830	-2.3798
-35.638	-2.9055
-38.610	-3.4329
-41.581	-3.9615
-44.424	-4.4895
-47.107	-5.0175
-49.791	-5.5448
-52.474	-6.0721
-55.306	-6.5993
-58.210	-7.1266
-61.053	-7.6539
-63.895	-8.1811
-66.738	-8.7084
-69.577	-9.2357
-72.415	-9.7629
-74.853	-10.289
-77.670	-10.815
-80.968	-11.342
-84.266	-11.869
-87.544	-12.397
-90.387	-12.924
-93.231	-13.453
-96.104	-13.981
-99.660	-14.508
-103.22	-15.035
-107.25	-15.563
-111.29	-16.090
-115.33	-16.617
-119.37	-17.145
-122.41	-17.672
-126.16	-18.199
-130.99	-18.726
-138.13	-19.253
-146.19	-19.780
-154.50	-20.307
-165.46	-20.833
-184.64	-21.360
-210.47	-21.885
-256.77	-22.410
-351.17	-22.936
-457.75	-23.249
-327.10	-23.110