File: text_data/C5 - 10.txt
Load (N)	Extension (mm)

5.2134	0.069275
5.2289	0.069275
5.2445	0.069275
5.2600	0.069275
5.2755	0.069275
1.4606	0.014970
2.5740	0.015240
0.74199	0.013162
-0.68808	-0.032042
-4.3974	-0.19239
-5.7253	-0.37252
-7.0532	-0.55606
-8.3811	-0.74130
-9.7090	-0.92640
-11.037	-1.1108
-12.365	-1.2963
-13.693	-1.4809
-15.021	-1.6649
-16.349	-1.8483
-17.677	-2.0326
-19.004	-2.2168
-20.332	-2.4002
-21.660	-2.5836
-22.988	-2.7696
-24.316	-2.9498
-25.632	-3.1335
-26.862	-3.3172
-28.093	-3.5009
-29.323	-3.6846
-30.554	-3.8683
-31.785	-4.0520
-33.015	-4.2353
-34.246	-4.4187
-35.476	-4.6020
-36.707	-4.7853
-37.937	-4.9687
-39.195	-5.1520
-40.456	-5.3353
-41.716	-5.5187
-42.977	-5.7020
-44.237	-5.8854
-45.498	-6.0687
-46.759	-6.2520
-47.929	-6.4354
-48.969	-6.6187
-50.008	-6.8020
-51.048	-6.9854
-52.087	-7.1687
-53.127	-7.3521
-54.361	-7.5354
-55.790	-7.7187
-57.218	-7.9022
-58.431	-8.0857
-59.465	-8.2692
-60.498	-8.4527
-61.532	-8.6362
-62.565	-8.8196
-63.595	-9.0031
-64.585	-9.1864
-65.575	-9.3695
-66.565	-9.5526
-67.555	-9.7357
-68.544	-9.9188
-65.561	-10.014
-62.007	-10.005
-59.859	-9.9596
-41.855	-9.7975
-40.789	-9.6189
-39.724	-9.4356
-38.658	-9.2524
-37.593	-9.0691
-36.527	-8.8858
-35.462	-8.7025
-34.396	-8.5192
-33.330	-8.3359
-32.265	-8.1526
-31.199	-7.9693
-30.134	-7.7861
-29.068	-7.6028
-28.003	-7.4195
-26.937	-7.2362
-25.872	-7.0529
-25.097	-6.8696
-24.554	-6.6863
-24.010	-6.5030
-23.467	-6.3198
-22.675	-6.1365
-21.600	-5.9532
-20.525	-5.7699
-19.450	-5.5866
-18.375	-5.4033
-17.300	-5.2200
-16.225	-5.0367
-15.306	-4.8535
-14.469	-4.6702
-13.633	-4.4869
-12.797	-4.3036
-11.960	-4.1203
-11.124	-3.9370
-10.046	-3.7537
-8.7447	-3.5704
-7.4433	-3.3872
-6.1130	-3.2039
-4.7751	-3.0206
-3.4372	-2.8373
-3.0367	-2.6540
-2.8158	-2.4707
-2.5949	-2.2807
-2.3740	-2.0975
-2.1531	-1.9143
-1.9322	-1.7312
-0.80381	-1.5480
1.3156	-1.3648
3.1389	-1.1816
3.8221	-0.99846
4.5054	-0.81529
5.1887	-0.63212
5.7563	-0.44894
6.2372	-0.26577
6.7181	-0.082599
7.1989	0.10057
8.5779	0.28375
10.325	0.46692
12.073	0.65009
12.581	0.83340
13.067	1.0178
13.553	1.2013
14.039	1.3848
14.487	1.5684
14.916	1.7519
15.345	1.9354
17.257	2.1190
19.263	2.3025
21.269	2.4860
22.410	2.6695
22.792	2.8531
23.173	3.0366
23.555	3.2201
23.936	3.4036
24.413	3.5872
25.996	3.7707
27.578	3.9541
29.160	4.1374
30.578	4.3208
31.403	4.5041
32.229	4.6874
33.054	4.8707
33.328	5.0541
33.473	5.2374
34.063	5.4207
35.640	5.6041
37.217	5.7874
38.795	5.9707
39.638	6.1540
40.130	6.3374
40.622	6.5207
41.114	6.7040
41.606	6.8874
42.231	7.0706
43.320	7.2539
44.409	7.4371
45.498	7.6204
46.587	7.8036
47.676	7.9869
48.699	8.1701
49.723	8.3523
50.746	8.5327
51.770	8.7163
52.515	8.8999
53.129	9.0834
53.744	9.2670
54.758	9.4505
56.828	9.6341
58.899	9.8176
59.377	9.9975
49.083	9.8717
45.685	9.7042
43.138	9.5237
42.055	9.3403
40.972	9.1569
39.889	8.9736
38.806	8.7902
37.723	8.6069
36.640	8.4235
35.558	8.2401
34.475	8.0568
33.392	7.8734
32.309	7.6901
31.226	7.5067
30.143	7.3234
29.061	7.1400
27.978	6.9566
26.895	6.7733
25.812	6.5899
24.729	6.4066
23.646	6.2232
22.564	6.0399
21.481	5.8565
20.398	5.6731
19.315	5.4898
18.232	5.3064
17.149	5.1231
16.066	4.9397
14.984	4.7563
13.901	4.5730
12.818	4.3896
11.735	4.2063
10.652	4.0229
9.5694	3.8396
8.4866	3.6562
7.4193	3.4728
6.4148	3.2895
5.4104	3.1061
4.4059	2.9228
3.4015	2.7394
2.3970	2.5561
1.3926	2.3727
0.38813	2.1893
-0.61632	2.0060
-1.6208	1.8226
-2.6252	1.6393
-3.7866	1.4559
-5.0011	1.2725
-6.0696	1.0892
-7.1380	0.90583
-8.2065	0.72247
-9.2749	0.53329
-10.343	0.35016
-11.412	0.16703
-12.480	-0.016097
-13.549	-0.19923
-14.617	-0.38236
-15.686	-0.56549
-16.754	-0.74862
-17.799	-0.93175
-18.798	-1.1149
-19.797	-1.2980
-20.796	-1.4811
-21.795	-1.6643
-22.794	-1.8475
-23.807	-2.0307
-24.873	-2.2139
-25.938	-2.3971
-27.004	-2.5803
-28.070	-2.7635
-29.135	-2.9469
-30.201	-3.1309
-31.267	-3.3149
-32.332	-3.4990
-33.398	-3.6823
-34.416	-3.8657
-35.411	-4.0491
-36.406	-4.2324
-37.401	-4.4158
-38.395	-4.5992
-39.390	-4.7825
-40.385	-4.9659
-41.380	-5.1493
-42.375	-5.3326
-43.369	-5.5160
-44.364	-5.6994
-45.359	-5.8827
-46.354	-6.0661
-47.599	-6.2495
-48.858	-6.4328
-50.118	-6.6162
-51.377	-6.7996
-52.637	-6.9829
-53.707	-7.1663
-54.705	-7.3497
-55.703	-7.5330
-56.701	-7.7164
-57.697	-7.8997
-58.692	-8.0830
-59.687	-8.2663
-60.683	-8.4496
-61.678	-8.6328
-62.673	-8.8161
-63.668	-8.9994
-64.663	-9.1826
-65.658	-9.3659
-66.653	-9.5492
-67.648	-9.7325
-68.815	-9.9157
-63.495	-9.9502
-41.993	-9.7830