File: text_data/C5.txt
Load (N)	Extension (mm)

5.6216	0.061035
5.6926	0.061035
2.1717	-0.013602
-5.2216	-0.27406
-9.6254	-0.80500
-13.161	-1.3407
-16.696	-1.8750
-20.232	-2.4049
-23.767	-2.9386
-27.124	-3.4703
-30.229	-4.0015
-33.335	-4.5319
-36.778	-5.0624
-40.258	-5.5929
-43.738	-6.1222
-47.218	-6.6534
-50.834	-7.1847
-54.498	-7.7159
-58.224	-8.2471
-62.274	-8.7784
-66.054	-9.3073
-69.835	-9.8360
-73.054	-10.367
-75.931	-10.897
-78.955	-11.428
-81.539	-11.959
-84.971	-12.490
-87.929	-13.021
-90.816	-13.552
-93.727	-14.083
-96.638	-14.613
-99.549	-15.144
-102.54	-15.674
-106.28	-16.205
-111.19	-16.735
-115.90	-17.266
-120.08	-17.796
-123.90	-18.327
-128.51	-18.857
-133.25	-19.388
-138.85	-19.918
-144.86	-20.448
-151.46	-20.979
-158.05	-21.509
-167.95	-22.040
-255.27	-22.568
-482.62	-23.091
-424.50	-22.989
-131.58	-22.480
-120.19	-21.949
-108.81	-21.419
-97.423	-20.888
-92.427	-20.358
-89.111	-19.827
-85.795	-19.297
-82.422	-18.766
-78.884	-18.236
-75.347	-17.705
-72.425	-17.175
-71.114	-16.644
-65.241	-16.114
-62.514	-15.583
-61.353	-15.053
-60.011	-14.522
-55.563	-13.991
-51.898	-13.460
-51.148	-12.929
-50.270	-12.402
-44.984	-11.871
-42.280	-11.340
-41.305	-10.809
-39.747	-10.277
-35.444	-9.7479
-33.133	-9.2177
-32.344	-8.6873
-29.035	-8.1569
-25.141	-7.6266
-24.256	-7.0960
-23.258	-6.5653
-17.756	-6.0347
-14.441	-5.5040
-13.042	-4.9734
-12.415	-4.4365
-7.5967	-3.9096
-6.4544	-3.3796
-5.2467	-2.8487
-1.6467	-2.3177
1.7795	-1.7868
3.0616	-1.2558
4.0832	-0.72489
9.2328	-0.19432
10.878	0.33589
11.529	0.86518
15.676	1.3959
18.518	1.9271
19.154	2.4582
22.705	2.9894
26.444	3.5205
27.742	4.0513
30.075	4.5819
34.393	5.1125
35.752	5.6431
38.699	6.1737
42.232	6.7043
44.131	7.2349
46.771	7.7655
50.764	8.2961
52.210	8.8258
54.553	9.3573
58.541	9.8885
61.457	10.420
63.484	10.951
66.828	11.482
70.461	12.012
72.907	12.542
75.578	13.072
79.634	13.602
81.741	14.132
84.671	14.662
89.776	15.193
91.703	15.724
93.630	16.255
97.479	16.785
101.75	17.316
103.82	17.847
106.19	18.377
111.44	18.906
115.94	19.437
117.37	19.968
120.92	20.499
126.18	21.030
129.09	21.561
130.20	22.092
135.57	22.623
140.94	23.153
144.08	23.684
146.33	24.215
151.70	24.745
156.64	25.276
159.57	25.807
163.30	26.336
170.75	26.866
174.34	27.396
176.08	27.927
181.35	28.458
189.64	28.989
193.42	29.520
196.32	30.051
200.97	30.582
208.74	31.112
211.74	31.643
215.72	32.173
224.17	32.703
232.40	33.234
237.43	33.764
247.90	34.295
261.48	34.825
277.00	35.356
291.19	35.886
300.68	36.417
315.95	36.947
341.31	37.477
351.25	38.007
370.02	38.537
409.26	39.066
454.37	39.595
463.91	39.931
326.46	39.412
281.33	38.881
255.28	38.351
238.45	37.820
224.18	37.290
213.63	36.760
206.26	36.229
198.89	35.699
193.04	35.168
187.43	34.638
181.82	34.107
177.23	33.577
172.69	33.045
168.15	32.514
163.92	31.983
159.92	31.452
155.92	30.921
151.93	30.390
147.93	29.859
144.23	29.328
140.58	28.798
136.93	28.267
133.28	27.737
129.63	27.206
125.98	26.676
122.33	26.145
118.68	25.615
115.16	25.085
111.79	24.554
108.42	24.024
105.05	23.494
101.68	22.963
98.303	22.432
94.997	21.896
91.810	21.365
88.623	20.834
85.436	20.304
82.250	19.774
79.063	19.243
75.876	18.713
72.689	18.182
69.638	17.652
66.904	17.121
63.926	16.592
60.949	16.062
57.972	15.532
54.995	15.003
52.018	14.471
49.040	13.939
46.063	13.407
43.086	12.879
40.109	12.348
37.133	11.818
34.193	11.287
31.253	10.757
28.313	10.226
25.401	9.6946
22.538	9.1634
19.675	8.6322
16.812	8.1010
13.949	7.5704
11.086	7.0400
8.2229	6.5097
5.3599	5.9794
2.4969	5.4491
-0.36614	4.9186
-3.3641	4.3878
-6.4006	3.8569
-9.4371	3.3261
-12.474	2.7955
-15.202	2.2649
-17.841	1.7344
-20.480	1.2029
-23.123	0.67111
-25.784	0.14036
-28.446	-0.39008
-31.107	-0.92051
-33.860	-1.4509
-36.650	-1.9814
-39.440	-2.5118
-42.230	-3.0423
-45.021	-3.5730
-47.731	-4.1037
-50.441	-4.6344
-53.150	-5.1651
-55.860	-5.6958
-58.310	-6.2265
-60.736	-6.7574
-63.162	-7.2884
-66.139	-7.8195
-69.579	-8.3505
-73.019	-8.8816
-76.192	-9.4128
-79.170	-9.9433
-82.178	-10.474
-85.263	-11.004
-89.004	-11.534
-92.160	-12.065
-94.754	-12.595
-99.984	-13.126
-103.86	-13.656
-107.73	-14.187
-111.61	-14.718
-115.49	-15.248
-119.51	-15.779
-123.86	-16.309
-128.73	-16.839
-133.66	-17.368
-140.37	-17.898
-146.49	-18.429
-151.16	-18.960
-155.82	-19.491
-162.38	-20.021
-173.19	-20.552
-188.06	-21.083
-212.15	-21.613
-253.90	-22.144
-318.17	-22.671
-479.81	-23.011
-323.12	-22.866