File: text_data/C6 - 10.txt
Load (N)	Extension (mm)

2.8066
2.8100	-0.057373
2.8134	-0.057373
2.8168	-0.057373
2.8202	-0.057373
5.5802	-0.016320
-1.3272	-0.018599
-2.3410	-0.021973
-3.5318	-0.067820
-7.1838	-0.23834
-9.1706	-0.41493
-11.157	-0.59704
-13.144	-0.78246
-14.597	-0.96826
-15.681	-1.1526
-16.764	-1.3368
-17.848	-1.5209
-18.931	-1.7046
-20.015	-1.8880
-21.098	-2.0715
-22.182	-2.2548
-23.265	-2.4379
-24.349	-2.6209
-25.432	-2.8040
-26.516	-2.9870
-27.599	-3.1701
-28.683	-3.3531
-29.766	-3.5362
-30.850	-3.7191
-31.933	-3.9019
-33.017	-4.0847
-34.100	-4.2675
-35.183	-4.4503
-36.267	-4.6331
-37.350	-4.8159
-38.434	-4.9987
-39.517	-5.1815
-40.601	-5.3644
-41.684	-5.5472
-42.768	-5.7300
-43.849	-5.9130
-44.863	-6.0961
-45.876	-6.2792
-46.890	-6.4623
-47.904	-6.6454
-48.918	-6.8285
-49.958	-7.0116
-51.051	-7.1947
-52.143	-7.3778
-53.236	-7.5609
-54.328	-7.7440
-55.420	-7.9271
-56.513	-8.1099
-57.605	-8.2924
-58.697	-8.4749
-59.790	-8.6574
-60.882	-8.8399
-61.783	-9.0224
-62.655	-9.2049
-63.527	-9.3874
-64.399	-9.5699
-65.264	-9.7535
-66.125	-9.9375
-62.823	-10.004
-61.814	-10.004
-55.014	-9.8975
-47.210	-9.7313
-46.399	-9.5485
-45.587	-9.3656
-44.775	-9.1827
-43.964	-8.9998
-43.152	-8.8169
-42.341	-8.6340
-41.504	-8.4512
-40.589	-8.2683
-39.675	-8.0854
-38.760	-7.9025
-37.846	-7.7196
-36.931	-7.5368
-36.017	-7.3539
-35.083	-7.1710
-34.137	-6.9881
-33.192	-6.8052
-32.246	-6.6223
-31.301	-6.4395
-30.355	-6.2566
-29.410	-6.0737
-28.464	-5.8908
-27.519	-5.7079
-26.493	-5.5250
-25.284	-5.3422
-24.074	-5.1593
-22.864	-4.9764
-21.785	-4.7935
-20.877	-4.6106
-19.969	-4.4278
-19.062	-4.2449
-18.154	-4.0620
-17.247	-3.8791
-16.339	-3.6962
-15.431	-3.5133
-14.524	-3.3305
-13.616	-3.1476
-12.709	-2.9647
-11.801	-2.7818
-10.893	-2.5989
-9.9546	-2.4161
-8.9071	-2.2332
-7.8595	-2.0504
-6.8060	-1.8676
-5.5826	-1.6847
-4.3592	-1.5019
-3.3577	-1.3191
-2.4275	-1.1362
-1.0853	-0.95340
0.42743	-0.77057
1.9402	-0.58774
3.4529	-0.40491
4.8031	-0.22207
5.2504	-0.039243
5.6978	0.14359
5.8887	0.32588
6.0748	0.50743
6.8218	0.68898
7.8216	0.87053
9.6596	1.0530
11.498	1.2363
13.336	1.4195
14.663	1.6028
15.084	1.7860
15.506	1.9693
15.927	2.1525
16.349	2.3358
16.770	2.5190
17.883	2.7023
19.341	2.8855
20.798	3.0688
22.256	3.2520
23.714	3.4353
24.003	3.6181
24.140	3.8009
24.277	3.9838
24.414	4.1666
25.145	4.3494
26.346	4.5322
27.634	4.7150
29.139	4.8978
30.645	5.0806
32.062	5.2634
32.607	5.4464
33.152	5.6294
33.871	5.8124
34.710	5.9954
35.550	6.1784
36.669	6.3613
38.207	6.5443
39.746	6.7273
41.285	6.9110
42.824	7.0938
43.871	7.2767
44.827	7.4596
45.726	7.6424
46.161	7.8253
46.596	8.0082
47.032	8.1894
47.479	8.3725
48.867	8.5536
50.254	8.7360
51.641	8.9188
53.029	9.1049
54.412	9.2879
54.356	9.4708
54.300	9.6538
54.243	9.8367
54.672	10.009
44.609	9.8211
41.725	9.6506
38.842	9.4800
37.241	9.2977
36.151	9.1148
35.060	8.9319
33.970	8.7490
32.880	8.5660
31.789	8.3831
30.699	8.2002
29.608	8.0172
28.518	7.8343
27.427	7.6514
26.337	7.4684
25.246	7.2855
24.156	7.1026
23.065	6.9197
21.975	6.7367
20.884	6.5538
19.794	6.3709
18.703	6.1879
17.613	6.0050
16.522	5.8221
15.432	5.6391
14.341	5.4562
13.260	5.2733
12.191	5.0903
11.122	4.9074
10.053	4.7245
8.9846	4.5416
7.9158	4.3586
6.8471	4.1757
5.7784	3.9928
4.7096	3.8098
3.6409	3.6269
2.5721	3.4440
1.5034	3.2610
0.43463	3.0781
-0.63412	2.8952
-1.7029	2.7123
-2.7606	2.5293
-3.7508	2.3464
-4.7410	2.1635
-5.7312	1.9805
-6.7214	1.7976
-7.7116	1.6147
-8.7018	1.4317
-9.6920	1.2488
-10.682	1.0659
-11.672	0.88295
-12.663	0.70015
-13.653	0.51744
-14.643	0.33473
-15.633	0.15202
-16.625	-0.030687
-17.705	-0.21340
-18.784	-0.39611
-19.864	-0.57881
-20.910	-0.76152
-21.934	-0.94423
-22.958	-1.1269
-23.982	-1.3097
-25.007	-1.4924
-26.031	-1.6751
-27.055	-1.8578
-28.079	-2.0405
-29.074	-2.2232
-30.025	-2.4059
-30.976	-2.5886
-31.926	-2.7713
-32.877	-2.9564
-33.828	-3.1410
-34.779	-3.3239
-35.730	-3.5068
-36.684	-3.6897
-37.648	-3.8725
-38.613	-4.0554
-39.578	-4.2383
-40.542	-4.4212
-41.507	-4.6040
-42.471	-4.7869
-43.436	-4.9698
-44.401	-5.1527
-45.365	-5.3356
-46.344	-5.5184
-47.382	-5.7013
-48.421	-5.8842
-49.460	-6.0671
-50.498	-6.2499
-51.537	-6.4328
-52.576	-6.6157
-53.614	-6.7986
-54.653	-6.9814
-55.692	-7.1643
-56.730	-7.3472
-57.769	-7.5301
-58.808	-7.7129
-59.846	-7.8958
-60.885	-8.0787
-61.924	-8.2617
-62.836	-8.4448
-63.607	-8.6278
-64.379	-8.8108
-65.162	-8.9938
-66.124	-9.1768
-67.085	-9.3599
-68.047	-9.5429
-69.009	-9.7259
-69.971	-9.9089
-64.241	-9.9503
-47.452	-9.7771