File: text_data/C6.txt
Load (N)	Extension (mm)

3.6115	-0.064087
3.6398	-0.064087
8.5678	-0.0041677
-3.3742	-0.10225
-10.188	-0.59985
-15.388	-1.1202
-18.461	-1.6425
-21.534	-2.1606
-24.607	-2.6789
-27.679	-3.1976
-30.752	-3.7154
-33.825	-4.2337
-36.898	-4.7510
-39.971	-5.2678
-43.044	-5.7851
-46.094	-6.3031
-49.109	-6.8211
-52.123	-7.3391
-55.138	-7.8571
-58.153	-8.3750
-61.168	-8.8917
-63.262	-9.4086
-66.243	-9.9255
-69.302	-10.443
-72.361	-10.959
-75.420	-11.476
-78.479	-11.994
-81.538	-12.511
-84.641	-13.029
-87.802	-13.546
-90.963	-14.063
-94.124	-14.581
-97.284	-15.098
-100.18	-15.616
-103.03	-16.133
-106.24	-16.651
-109.80	-17.168
-113.36	-17.685
-116.92	-18.203
-120.48	-18.720
-123.76	-19.238
-127.00	-19.755
-130.53	-20.271
-134.59	-20.788
-141.83	-21.305
-188.26	-21.822
-410.84	-22.333
-500.76	-22.423
-167.52	-21.924
-126.42	-21.416
-108.48	-20.899
-95.444	-20.382
-92.730	-19.865
-90.015	-19.348
-87.301	-18.830
-84.587	-18.313
-81.872	-17.796
-79.204	-17.279
-76.557	-16.762
-73.514	-16.244
-68.799	-15.727
-66.008	-15.210
-65.019	-14.688
-62.740	-14.171
-58.203	-13.654
-54.709	-13.137
-54.907	-12.620
-54.743	-12.102
-49.226	-11.585
-45.045	-11.068
-44.929	-10.550
-43.537	-10.033
-38.153	-9.5156
-33.385	-8.9988
-31.326	-8.4820
-31.439	-7.9652
-29.778	-7.4484
-24.146	-6.9273
-23.159	-6.4099
-23.472	-5.8925
-18.461	-5.3751
-15.357	-4.8577
-13.931	-4.3400
-13.854	-3.8227
-8.7605	-3.3054
-7.4101	-2.7881
-6.8265	-2.2708
-0.76739	-1.7536
1.0784	-1.2363
2.3866	-0.71898
6.2724	-0.20169
8.8190	0.31664
9.4340	0.83288
13.101	1.3495
18.640	1.8668
18.886	2.3841
19.796	2.9014
24.307	3.4186
26.570	3.9359
26.808	4.4532
29.729	4.9705
33.928	5.4902
35.373	6.0075
37.871	6.5247
42.495	7.0420
45.509	7.5593
47.156	8.0765
49.786	8.6105
53.574	9.1122
55.803	9.6295
55.632	10.147
61.526	10.664
64.094	11.181
64.929	11.699
69.170	12.216
73.664	12.733
74.821	13.247
76.995	13.764
83.263	14.281
84.437	14.798
85.611	15.316
90.476	15.833
93.168	16.350
94.660	16.868
97.569	17.385
103.00	17.902
105.35	18.420
106.25	18.937
110.80	19.454
115.79	19.971
116.31	20.488
117.70	21.007
124.95	21.526
128.40	22.044
128.97	22.561
135.02	23.078
140.94	23.595
142.94	24.112
145.01	24.630
152.26	25.147
156.43	25.664
157.43	26.181
162.66	26.698
170.34	27.216
173.55	27.733
175.16	28.250
184.58	28.767
192.49	29.284
193.47	29.803
198.14	30.322
210.62	30.839
214.95	31.357
217.61	31.874
228.98	32.391
241.83	32.909
247.01	33.426
253.64	33.943
272.17	34.460
290.70	34.977
302.73	35.494
314.54	36.011
337.13	36.528
350.13	37.045
366.41	37.561
408.29	38.078
449.51	38.594
484.22	38.987
344.10	38.472
290.86	37.955
258.62	37.438
241.86	36.921
225.11	36.404
214.79	35.887
204.74	35.370
196.61	34.853
189.28	34.336
182.50	33.819
177.05	33.301
171.59	32.784
166.30	32.267
161.93	31.749
157.56	31.231
153.19	30.713
149.05	30.195
145.12	29.677
141.19	29.160
137.26	28.643
133.36	28.125
129.80	27.608
126.23	27.091
122.66	26.573
119.09	26.056
115.52	25.539
112.08	25.022
108.67	24.506
105.25	23.989
101.84	23.471
98.426	22.953
95.112	22.435
92.019	21.920
88.926	21.398
85.833	20.881
82.741	20.364
79.631	19.846
76.468	19.329
73.304	18.811
70.140	18.294
66.998	17.777
63.991	17.259
60.985	16.742
57.979	16.225
54.972	15.708
52.051	15.192
49.142	14.675
46.234	14.158
43.326	13.640
40.418	13.122
37.510	12.605
34.604	12.087
31.807	11.570
29.010	11.053
26.213	10.535
23.416	10.018
20.619	9.5005
17.822	8.9828
15.025	8.4651
12.229	7.9474
9.4844	7.4298
6.7598	6.9122
4.0352	6.3946
1.3106	5.8770
-1.1611	5.3593
-3.5997	4.8417
-6.4079	4.3241
-9.2160	3.8065
-12.024	3.2889
-14.832	2.7713
-17.640	2.2553
-20.351	1.7385
-22.977	1.2211
-25.604	0.70365
-28.405	0.18624
-31.230	-0.33118
-34.055	-0.84882
-36.880	-1.3679
-39.569	-1.8851
-42.346	-2.4021
-45.240	-2.9190
-48.134	-3.4360
-51.029	-3.9531
-53.719	-4.4702
-56.354	-4.9872
-58.988	-5.5043
-61.623	-6.0217
-63.597	-6.5392
-66.349	-7.0568
-69.227	-7.5743
-72.104	-8.0919
-74.982	-8.6094
-77.771	-9.1270
-80.407	-9.6445
-83.370	-10.162
-86.364	-10.680
-89.724	-11.197
-93.350	-11.715
-96.975	-12.233
-100.55	-12.751
-103.73	-13.269
-107.25	-13.787
-111.09	-14.302
-114.93	-14.819
-118.77	-15.336
-122.68	-15.853
-127.43	-16.370
-132.72	-16.887
-138.61	-17.404
-143.04	-17.921
-148.34	-18.438
-154.10	-18.956
-159.30	-19.473
-167.60	-19.990
-189.06	-20.507
-221.94	-21.024
-276.96	-21.540
-333.11	-22.055
-466.31	-22.371
-326.62	-22.235