File: text_data/C7 - 10.txt
Load (N)	Extension (mm)

18.445
18.478	1.8916
18.511	1.8915
18.544	1.8914
18.577	1.8912
18.610	1.8911
15.501	1.7867
13.956	1.6082
12.624	1.4171
11.377	1.2245
10.308	1.0317
9.3965	0.83973
8.4853	0.64774
7.5003	0.45529
6.4822	0.26285
5.4641	0.070405
6.0601	-0.034543
6.1378	-0.029364
5.0349	-0.10307
3.4933	-0.28287
2.5478	-0.47194
1.6023	-0.66264
0.65685	-0.85368
-0.28863	-1.0447
-1.2341	-1.2358
-2.1796	-1.4268
-3.1251	-1.6178
-4.0706	-1.8089
-5.0160	-1.9999
-5.9615	-2.1910
-6.9070	-2.3820
-7.8525	-2.5731
-8.7980	-2.7639
-9.7434	-2.9547
-10.689	-3.1454
-11.634	-3.3361
-12.580	-3.5269
-13.525	-3.7176
-14.471	-3.9083
-15.416	-4.0991
-16.362	-4.2898
-17.307	-4.4806
-18.253	-4.6713
-19.198	-4.8620
-20.144	-5.0528
-21.089	-5.2436
-22.035	-5.4343
-22.980	-5.6253
-23.926	-5.8163
-24.871	-6.0072
-25.817	-6.1982
-26.762	-6.3892
-27.708	-6.5802
-28.653	-6.7711
-29.599	-6.9621
-30.544	-7.1531
-31.490	-7.3440
-32.435	-7.5349
-33.380	-7.7256
-34.326	-7.9163
-35.271	-8.1070
-36.217	-8.2977
-37.162	-8.4884
-38.108	-8.6791
-39.053	-8.8698
-39.999	-9.0605
-40.944	-9.2512
-41.890	-9.4419
-42.826	-9.6326
-43.732	-9.8233
-44.637	-10.003
-40.963	-10.005
-41.652	-9.9944
-38.872	-9.8255
-37.414	-9.6453
-36.485	-9.4602
-35.556	-9.2695
-34.628	-9.0787
-33.699	-8.8880
-32.771	-8.6972
-31.842	-8.5065
-30.913	-8.3157
-29.985	-8.1250
-29.056	-7.9342
-28.128	-7.7435
-27.199	-7.5527
-26.270	-7.3620
-25.342	-7.1712
-24.413	-6.9805
-23.484	-6.7897
-22.556	-6.5990
-21.627	-6.4082
-20.699	-6.2175
-19.770	-6.0267
-18.841	-5.8360
-17.913	-5.6452
-16.984	-5.4545
-16.056	-5.2638
-15.127	-5.0730
-14.198	-4.8823
-13.270	-4.6915
-12.341	-4.5008
-11.413	-4.3100
-10.484	-4.1193
-9.5553	-3.9285
-8.6267	-3.7378
-7.6981	-3.5470
-6.7695	-3.3563
-5.8409	-3.1655
-4.9122	-2.9748
-3.9836	-2.7840
-3.0550	-2.5933
-2.1264	-2.4025
-1.1978	-2.2118
-0.26918	-2.0210
0.65944	-1.8303
1.5880	-1.6395
2.5167	-1.4488
3.4453	-1.2580
4.3739	-1.0621
5.3025	-0.87139
6.2311	-0.68071
7.1597	-0.49003
8.0883	-0.29935
9.0172	-0.10867
9.9466	0.082012
10.876	0.27269
11.805	0.46337
12.735	0.65405
13.680	0.84473
14.766	1.0354
15.852	1.2261
16.938	1.4168
18.024	1.6075
19.215	1.7981
20.652	1.9888
22.089	2.1795
23.507	2.3702
24.196	2.5627
24.885	2.7535
25.574	2.9443
26.264	3.1350
26.955	3.3258
28.098	3.5165
29.242	3.7073
30.386	3.8981
31.563	4.0888
33.164	4.2796
34.765	4.4704
36.351	4.6611
37.085	4.8519
37.820	5.0427
38.554	5.2334
39.288	5.4242
40.023	5.6150
40.757	5.8057
41.693	5.9965
42.858	6.1873
44.206	6.3781
46.013	6.5689
47.820	6.7597
49.180	6.9505
49.984	7.1413
50.789	7.3321
51.593	7.5229
52.398	7.7136
53.202	7.9043
54.007	8.0950
54.811	8.2857
56.736	8.4763
58.933	8.6670
60.135	8.8577
60.731	9.0484
61.327	9.2391
61.924	9.4298
62.520	9.6205
63.116	9.8111
63.681	9.9920
56.926	9.8811
55.523	9.7071
54.297	9.5176
53.070	9.3268
51.843	9.1361
50.617	8.9454
49.390	8.7547
48.164	8.5640
46.937	8.3733
45.710	8.1826
44.484	7.9919
43.257	7.8012
42.030	7.6104
40.881	7.4197
39.897	7.2290
38.913	7.0383
37.929	6.8476
36.946	6.6569
35.962	6.4662
34.978	6.2755
33.994	6.0848
33.010	5.8940
32.026	5.7033
31.042	5.5126
30.059	5.3219
29.075	5.1312
28.091	4.9405
27.107	4.7503
26.123	4.5613
25.139	4.3723
24.156	4.1819
23.172	3.9911
22.188	3.8003
21.204	3.6094
20.220	3.4186
19.236	3.2277
18.253	3.0369
17.269	2.8460
16.285	2.6552
15.301	2.4643
14.317	2.2735
13.333	2.0826
12.350	1.8918
11.366	1.7009
10.382	1.5101
9.3980	1.3192
8.4142	1.1284
7.4304	0.93752
6.4465	0.74667
5.4627	0.55582
4.4789	0.36497
3.4950	0.17412
2.5287	-0.015880
1.5833	-0.20578
0.63784	-0.39572
-0.30757	-0.58646
-1.2530	-0.77720
-2.1984	-0.96794
-3.1438	-1.1587
-4.0892	-1.3494
-5.0346	-1.5402
-5.9800	-1.7309
-6.9255	-1.9216
-7.8709	-2.1124
-8.8163	-2.3031
-9.7617	-2.4939
-10.707	-2.6846
-11.653	-2.8753
-12.598	-3.0661
-13.543	-3.2568
-14.489	-3.4476
-15.434	-3.6383
-16.380	-3.8290
-17.325	-4.0198
-18.270	-4.2105
-19.216	-4.4013
-20.170	-4.5920
-21.156	-4.7827
-22.141	-4.9735
-23.127	-5.1642
-24.113	-5.3550
-25.098	-5.5461
-26.084	-5.7373
-27.069	-5.9284
-28.055	-6.1196
-29.041	-6.3107
-30.026	-6.5019
-31.012	-6.6930
-31.998	-6.8842
-32.983	-7.0752
-33.969	-7.2659
-34.954	-7.4566
-35.940	-7.6473
-36.939	-7.8380
-37.994	-8.0287
-39.048	-8.2195
-40.103	-8.4102
-41.158	-8.6009
-42.213	-8.7916
-43.268	-8.9823
-44.322	-9.1730
-45.377	-9.3638
-46.432	-9.5543
-47.487	-9.7445
-48.541	-9.9347
-41.993	-9.9348
-38.450	-9.7634
-37.328	-9.5758