File: text_data/C7.txt
Load (N)	Extension (mm)

17.944	2.0081
17.977	2.0081
14.956	1.8263
11.652	1.2929
8.7771	0.75395
5.9024	0.21771
6.4364	-0.033439
2.4142	-0.39386
-0.25689	-0.92880
-2.9279	-1.4640
-5.5990	-1.9993
-8.2701	-2.5341
-10.941	-3.0679
-13.612	-3.6018
-16.283	-4.1357
-18.954	-4.6677
-21.625	-5.2023
-24.296	-5.7369
-26.967	-6.2715
-29.639	-6.8061
-32.310	-7.3407
-34.981	-7.8752
-37.652	-8.4096
-40.323	-8.9440
-42.471	-9.4784
-45.288	-10.013
-48.104	-10.547
-50.920	-11.084
-53.737	-11.618
-56.553	-12.153
-59.369	-12.687
-62.186	-13.221
-65.002	-13.755
-68.309	-14.289
-71.646	-14.824
-74.984	-15.358
-78.321	-15.892
-81.659	-16.427
-85.001	-16.961
-88.619	-17.496
-92.236	-18.030
-96.167	-18.564
-100.16	-19.101
-104.15	-19.635
-108.35	-20.170
-112.84	-20.704
-117.33	-21.238
-121.82	-21.773
-127.82	-22.307
-134.00	-22.841
-140.25	-23.375
-175.39	-23.909
-279.42	-24.439
-486.88	-24.966
-463.11	-24.961
-223.62	-24.450
-101.92	-23.915
-99.222	-23.381
-96.528	-22.846
-93.834	-22.312
-91.140	-21.777
-88.446	-21.243
-85.753	-20.708
-83.059	-20.174
-80.316	-19.637
-77.513	-19.102
-74.710	-18.567
-71.648	-18.033
-67.620	-17.498
-66.190	-16.964
-64.235	-16.430
-60.459	-15.895
-58.494	-15.361
-57.147	-14.826
-55.767	-14.292
-52.069	-13.757
-49.882	-13.223
-47.696	-12.687
-45.272	-12.153
-42.416	-11.620
-40.192	-11.086
-37.968	-10.551
-35.705	-10.017
-33.409	-9.4818
-31.112	-8.9471
-26.718	-8.4123
-24.604	-7.8776
-22.491	-7.3377
-20.377	-6.8067
-17.001	-6.2756
-14.876	-5.7409
-12.751	-5.2061
-10.398	-4.6714
-6.7623	-4.1367
-4.5764	-3.6020
-2.3904	-3.0673
1.7200	-2.5326
3.5571	-1.9967
5.3941	-1.4628
7.2312	-0.92888
10.624	-0.39471
12.501	0.13993
14.379	0.67457
16.676	1.2092
19.371	1.7439
21.787	2.2786
24.201	2.8133
26.561	3.3480
28.921	3.8827
31.281	4.4174
35.457	4.9521
37.810	5.4868
40.163	6.0188
43.639	6.5530
46.567	7.0872
48.882	7.6214
51.197	8.1556
55.302	8.6898
57.655	9.2243
60.007	9.7591
63.570	10.285
67.142	10.825
69.367	11.359
71.746	11.893
75.932	12.427
78.316	12.971
80.701	13.505
85.414	14.040
87.803	14.574
90.192	15.108
92.582	15.643
98.221	16.177
100.57	16.711
102.91	17.246
106.88	17.780
112.24	18.314
114.89	18.849
117.54	19.377
122.70	19.912
128.05	20.446
129.70	20.981
131.35	21.515
139.83	22.050
142.89	22.584
144.85	23.119
147.98	23.653
156.50	24.187
158.62	24.721
160.74	25.255
168.95	25.790
174.36	26.324
177.50	26.858
181.49	27.392
194.37	27.927
197.52	28.461
200.66	28.995
209.86	29.530
221.83	30.064
226.20	30.599
230.58	31.134
244.71	31.669
256.45	32.203
266.76	32.737
279.47	33.270
298.41	33.804
320.49	34.338
347.77	34.872
374.57	35.406
416.45	35.939
476.90	36.470
369.45	36.258
293.99	35.738
249.93	35.203
236.49	34.669
223.05	34.134
209.61	33.600
196.18	33.065
195.58	32.531
190.75	31.996
185.92	31.462
181.09	30.927
176.26	30.393
171.43	29.858
166.60	29.324
161.77	28.788
157.69	28.252
153.90	27.717
150.10	27.182
146.31	26.647
142.52	26.113
138.73	25.579
134.94	25.045
131.18	24.511
127.81	23.976
124.45	23.442
121.08	22.907
117.71	22.373
114.35	21.839
110.98	21.303
107.61	20.769
104.25	20.235
100.88	19.700
97.677	19.166
94.495	18.631
91.313	18.097
88.131	17.562
84.949	17.028
81.767	16.493
78.585	15.958
75.402	15.424
72.220	14.889
69.038	14.355
65.856	13.820
62.674	13.286
59.521	12.756
56.409	12.221
53.296	11.686
50.184	11.151
47.072	10.616
43.960	10.082
40.847	9.5467
37.735	9.0119
34.623	8.4771
31.511	7.9423
28.398	7.4097
25.286	6.8753
22.174	6.3408
19.061	5.8063
15.949	5.2718
12.837	4.7373
9.7247	4.2028
6.6124	3.6684
3.5002	3.1337
0.38791	2.5990
-2.7244	2.0643
-5.8366	1.5296
-8.9489	0.99495
-12.058	0.46026
-15.155	-0.074470
-18.251	-0.60933
-21.348	-1.1442
-24.454	-1.6790
-27.623	-2.2139
-30.793	-2.7488
-33.962	-3.2829
-37.131	-3.8134
-40.301	-4.3481
-43.470	-4.8827
-46.639	-5.4173
-49.808	-5.9520
-52.978	-6.4866
-56.147	-7.0213
-59.316	-7.5559
-62.485	-8.0905
-64.920	-8.6252
-68.953	-9.1598
-72.528	-9.6944
-76.074	-10.229
-79.620	-10.764
-83.166	-11.299
-86.713	-11.834
-90.259	-12.368
-94.107	-12.901
-98.125	-13.435
-102.14	-13.969
-106.16	-14.503
-110.18	-15.037
-114.53	-15.572
-119.05	-16.106
-123.58	-16.640
-128.10	-17.174
-132.63	-17.708
-137.15	-18.243
-141.68	-18.778
-145.73	-19.313
-149.75	-19.848
-155.56	-20.383
-161.89	-20.918
-165.64	-21.452
-173.03	-21.987
-180.99	-22.521
-206.12	-23.055
-231.04	-23.589
-275.23	-24.122
-386.29	-24.653
-381.99	-24.892
-283.47	-24.759