File: text_data/C8 - 10.txt
Load (N)	Extension (mm)

1.3053	-0.057068
1.3263	-0.057068
1.3473	-0.057068
1.3683	-0.057068
1.3893	-0.057068
4.6992	-0.014826
4.3309	0.025330
4.3767	0.025330
0.36009	-0.026045
-3.1761	-0.18912
-4.6629	-0.36693
-6.2262	-0.55111
-7.3696	-0.73612
-8.5130	-0.92112
-9.6564	-1.1061
-10.800	-1.2915
-11.943	-1.4772
-13.087	-1.6627
-14.230	-1.8469
-15.374	-2.0299
-16.517	-2.2141
-17.660	-2.3984
-18.804	-2.5815
-19.947	-2.7641
-21.091	-2.9471
-22.183	-3.1301
-23.236	-3.3134
-24.289	-3.4970
-25.342	-3.6806
-26.395	-3.8642
-27.448	-4.0477
-28.501	-4.2313
-29.554	-4.4149
-30.607	-4.5985
-31.659	-4.7821
-32.712	-4.9656
-33.655	-5.1488
-34.169	-5.3320
-35.204	-5.5152
-36.238	-5.6985
-37.272	-5.8817
-38.306	-6.0649
-39.340	-6.2481
-40.374	-6.4314
-41.409	-6.6146
-42.443	-6.7978
-43.477	-6.9810
-44.510	-7.1643
-45.532	-7.3475
-46.554	-7.5307
-47.576	-7.7139
-48.597	-7.8972
-49.619	-8.0804
-50.641	-8.2636
-51.663	-8.4468
-52.684	-8.6301
-53.706	-8.8133
-54.728	-8.9965
-55.749	-9.1797
-56.771	-9.3630
-57.799	-9.5462
-58.839	-9.7294
-59.879	-9.9109
-58.768	-10.020
-57.037	-10.008
-48.207	-9.9351
-39.144	-9.7691
-38.131	-9.5906
-37.118	-9.4075
-36.105	-9.2243
-35.092	-9.0411
-34.079	-8.8580
-33.065	-8.6748
-32.052	-8.4916
-31.039	-8.3085
-30.026	-8.1253
-28.907	-7.9421
-27.633	-7.7590
-26.359	-7.5758
-25.084	-7.3926
-24.433	-7.2095
-23.785	-7.0263
-23.138	-6.8431
-22.490	-6.6599
-21.843	-6.4768
-21.195	-6.2936
-20.548	-6.1104
-19.623	-5.9273
-18.682	-5.7441
-17.741	-5.5609
-16.800	-5.3778
-15.859	-5.1946
-15.038	-5.0114
-14.559	-4.8283
-14.080	-4.6451
-13.279	-4.4619
-11.746	-4.2788
-10.213	-4.0956
-8.6798	-3.9124
-7.9742	-3.7293
-7.3660	-3.5461
-6.7579	-3.3629
-6.1497	-3.1718
-5.5415	-2.9889
-4.9334	-2.8061
-4.3252	-2.6232
-3.5217	-2.4403
-2.4147	-2.2572
-1.3076	-2.0741
-0.20060	-1.8910
0.90644	-1.7079
1.9876	-1.5248
2.9352	-1.3417
3.8828	-1.1585
4.8304	-0.97543
5.7780	-0.79237
6.7255	-0.60944
7.6705	-0.42651
8.5064	-0.24358
9.3423	-0.060652
10.178	0.12228
11.014	0.30521
11.850	0.48999
12.686	0.67476
13.522	0.85798
14.358	1.0412
15.194	1.2244
16.028	1.4076
16.769	1.5909
17.510	1.7741
18.251	1.9573
19.171	2.1405
20.381	2.3237
21.591	2.5069
22.735	2.6902
23.792	2.8734
24.848	3.0566
25.904	3.2398
26.961	3.4230
28.017	3.6062
29.074	3.7895
30.130	3.9728
31.075	4.1561
31.666	4.3394
32.258	4.5228
32.849	4.7061
33.440	4.8894
34.402	5.0727
35.789	5.2561
37.176	5.4394
38.563	5.6227
39.951	5.8060
41.338	5.9894
42.217	6.1727
42.953	6.3551
43.690	6.5368
44.427	6.7199
45.164	6.9030
45.901	7.0861
46.638	7.2693
47.381	7.4524
48.242	7.6355
49.104	7.8186
50.354	8.0018
51.923	8.1849
53.193	8.3680
54.169	8.5511
55.145	8.7343
56.122	8.9174
57.098	9.1005
58.010	9.2836
58.750	9.4668
59.491	9.6504
60.231	9.8340
61.052	10.003
49.147	9.8307
47.772	9.6606
46.397	9.4905
45.022	9.3073
43.647	9.1240
42.272	8.9407
40.897	8.7575
39.522	8.5742
38.148	8.3909
36.921	8.2077
35.913	8.0244
34.904	7.8412
33.896	7.6579
32.887	7.4746
31.879	7.2914
30.870	7.1081
29.861	6.9248
28.853	6.7416
27.844	6.5583
26.836	6.3750
25.827	6.1918
24.819	6.0085
23.810	5.8252
22.802	5.6420
21.793	5.4587
20.785	5.2754
19.776	5.0922
18.768	4.9089
17.759	4.7257
16.751	4.5424
15.742	4.3591
14.734	4.1757
13.725	3.9923
12.717	3.8089
11.708	3.6255
10.700	3.4421
9.6913	3.2589
8.6828	3.0756
7.6743	2.8923
6.6658	2.7091
5.6573	2.5258
4.6487	2.3425
3.6402	2.1593
2.6317	1.9760
1.6232	1.7927
0.61471	1.6095
-0.39380	1.4262
-1.4023	1.2430
-2.4108	1.0597
-3.4193	0.87642
-4.4278	0.69315
-5.4364	0.50989
-6.4449	0.32691
-7.4534	0.14398
-8.4619	-0.038958
-9.4350	-0.22189
-10.369	-0.40483
-11.304	-0.58776
-12.238	-0.77070
-13.173	-0.95364
-14.107	-1.1366
-15.042	-1.3195
-15.976	-1.5024
-16.911	-1.6854
-17.846	-1.8683
-18.785	-2.0513
-19.723	-2.2344
-20.662	-2.4174
-21.601	-2.6004
-22.540	-2.7834
-23.479	-2.9665
-24.418	-3.1495
-25.356	-3.3325
-26.295	-3.5155
-27.234	-3.6991
-28.173	-3.8829
-29.112	-4.0667
-30.051	-4.2502
-30.989	-4.4334
-31.996	-4.6166
-33.047	-4.7998
-34.098	-4.9830
-35.149	-5.1662
-36.200	-5.3494
-37.251	-5.5325
-38.302	-5.7157
-39.353	-5.8989
-40.404	-6.0821
-41.455	-6.2653
-42.506	-6.4484
-43.556	-6.6316
-44.607	-6.8147
-45.658	-6.9978
-46.709	-7.1810
-47.760	-7.3641
-48.811	-7.5473
-49.862	-7.7303
-50.913	-7.9133
-51.964	-8.0964
-53.015	-8.2794
-54.013	-8.4624
-54.947	-8.6464
-55.882	-8.8314
-56.816	-9.0153
-57.751	-9.1982
-58.685	-9.3811
-59.627	-9.5641
-60.570	-9.7482
-61.513	-9.9338
-51.897	-9.9313
-37.361	-9.7672