File: text_data/C8.txt
Load (N)	Extension (mm)

21.353	1.8915
21.392	1.8915
15.253	1.6089
11.674	1.0669
8.2410	0.52087
5.2539	-0.021788
3.8030	-0.23021
1.2815	-0.75655
-1.7293	-1.2971
-4.7402	-1.8371
-7.7511	-2.3764
-10.762	-2.9158
-13.773	-3.4556
-16.784	-3.9957
-19.795	-4.5357
-22.805	-5.0759
-25.816	-5.6162
-28.827	-6.1567
-31.838	-6.6971
-34.849	-7.2363
-37.859	-7.7755
-40.868	-8.3147
-43.878	-8.8539
-46.887	-9.3931
-49.897	-9.9350
-52.906	-10.476
-55.845	-11.017
-58.663	-11.557
-61.480	-12.098
-64.297	-12.638
-67.343	-13.179
-70.440	-13.719
-73.340	-14.259
-76.217	-14.799
-79.093	-15.339
-81.969	-15.879
-84.845	-16.418
-87.721	-16.957
-90.597	-17.495
-93.847	-18.035
-97.152	-18.577
-100.46	-19.117
-103.79	-19.657
-108.29	-20.197
-112.08	-20.737
-115.87	-21.277
-119.66	-21.816
-123.93	-22.356
-130.43	-22.896
-150.70	-23.434
-209.66	-23.973
-312.67	-24.511
-461.23	-25.045
-480.97	-25.105
-237.85	-24.587
-126.21	-24.047
-120.40	-23.507
-114.59	-22.967
-108.78	-22.427
-102.97	-21.887
-97.165	-21.347
-76.603	-20.807
-74.463	-20.267
-71.575	-19.727
-67.323	-19.187
-66.169	-18.647
-65.016	-18.107
-59.822	-17.567
-58.480	-17.027
-57.139	-16.487
-53.018	-15.947
-49.007	-15.409
-47.070	-14.869
-45.568	-14.330
-39.009	-13.790
-37.893	-13.250
-37.211	-12.710
-34.602	-12.170
-29.326	-11.630
-28.321	-11.090
-27.560	-10.549
-23.541	-10.008
-20.182	-9.4676
-19.623	-8.9271
-17.842	-8.3880
-11.968	-7.8489
-11.039	-7.3065
-10.110	-6.7694
-6.0106	-6.2291
-2.7992	-5.6889
-1.7489	-5.1486
-0.23833	-4.6084
5.1334	-4.0682
6.6193	-3.5282
7.1040	-2.9881
11.714	-2.4467
16.617	-1.9072
17.493	-1.3676
18.369	-0.82812
22.398	-0.28855
25.237	0.25119
26.705	0.79094
29.055	1.3307
33.460	1.8704
35.065	2.4102
36.658	2.9500
40.335	3.4898
43.135	4.0296
45.647	4.5694
47.964	5.1092
51.165	5.6489
53.886	6.1893
56.152	6.7304
58.808	7.2708
61.664	7.8111
64.528	8.3515
67.590	8.8919
70.313	9.4323
73.551	9.9850
76.392	10.510
79.195	11.050
82.514	11.590
86.154	12.130
89.014	12.670
92.269	13.210
96.120	13.750
99.043	14.289
101.41	14.829
105.49	15.369
109.24	15.909
110.86	16.449
114.62	16.989
119.02	17.529
122.90	18.069
125.92	18.610
129.85	19.150
134.08	19.690
136.56	20.230
140.53	20.770
146.08	21.310
149.08	21.849
152.08	22.389
159.97	22.930
163.52	23.470
166.68	24.010
171.41	24.550
177.90	25.090
180.58	25.630
184.13	26.170
191.74	26.710
198.00	27.250
200.19	27.790
206.24	28.331
214.36	28.871
220.04	29.409
223.99	29.949
235.27	30.489
247.20	31.029
258.36	31.568
266.63	32.108
282.15	32.648
299.28	33.188
316.09	33.727
333.45	34.266
355.38	34.805
384.38	35.344
407.51	35.884
427.52	36.424
456.29	36.963
476.43	37.349
340.71	36.834
284.65	36.293
250.15	35.753
237.60	35.213
225.05	34.673
212.50	34.133
199.95	33.593
197.05	33.053
191.81	32.513
186.56	31.973
181.32	31.433
176.08	30.893
170.83	30.353
165.59	29.813
161.19	29.273
157.32	28.733
153.44	28.193
149.57	27.653
145.70	27.113
141.83	26.573
137.95	26.033
134.08	25.492
130.21	24.952
126.33	24.413
122.82	23.873
119.34	23.333
115.86	22.793
112.38	22.253
108.91	21.713
105.44	21.173
102.18	20.632
98.931	20.092
95.678	19.552
92.424	19.013
89.171	18.473
85.906	17.933
82.577	17.393
79.249	16.853
75.921	16.313
72.593	15.774
69.350	15.233
66.242	14.692
63.133	14.152
60.025	13.611
56.917	13.071
53.808	12.531
50.700	11.991
48.413	11.451
45.683	10.910
42.954	10.370
40.076	9.8304
37.096	9.2903
34.116	8.7503
31.152	8.2102
28.189	7.6702
25.227	7.1301
22.265	6.5900
19.302	6.0503
16.340	5.5106
13.377	4.9708
10.416	4.4309
7.4906	3.8910
4.5655	3.3512
1.6405	2.8113
-1.2845	2.2715
-4.2096	1.7316
-7.1346	1.1918
-9.8616	0.65190
-12.554	0.11204
-15.247	-0.42782
-17.940	-0.96768
-20.632	-1.5092
-23.325	-2.0500
-26.018	-2.5900
-28.853	-3.1299
-31.818	-3.6699
-34.783	-4.2099
-37.748	-4.7499
-40.713	-5.2898
-43.678	-5.8298
-46.643	-6.3698
-49.094	-6.9097
-51.427	-7.4496
-53.947	-7.9895
-56.605	-8.5294
-59.262	-9.0693
-61.920	-9.6092
-64.760	-10.149
-67.860	-10.689
-70.961	-11.229
-74.061	-11.770
-77.162	-12.311
-80.419	-12.850
-84.470	-13.390
-88.235	-13.930
-91.951	-14.470
-95.667	-15.010
-99.331	-15.550
-102.89	-16.089
-106.56	-16.629
-111.47	-17.169
-117.21	-17.709
-122.94	-18.249
-128.67	-18.789
-134.23	-19.329
-139.58	-19.869
-144.92	-20.409
-151.71	-20.946
-159.32	-21.486
-168.77	-22.026
-194.91	-22.565
-219.07	-23.105
-254.13	-23.645
-306.92	-24.183
-382.85	-24.720
-461.22	-25.058
-355.10	-24.914