File: text_data/C9 - 10.txt
Load (N)	Extension (mm)

18.742
18.743	0.28046
18.744	0.28046
18.746	0.28046
18.747	0.28046
17.055	0.26889
7.0155	0.11598
5.1832	-0.029560
6.3528	-0.034760
6.0685	-0.044051
2.8673	-0.20025
1.1368	-0.38061
-0.59362	-0.56509
-2.3241	-0.74957
-3.8347	-0.93476
-4.8426	-1.1206
-5.8505	-1.3064
-6.8584	-1.4916
-7.8663	-1.6759
-8.8742	-1.8601
-9.8821	-2.0443
-10.890	-2.2285
-11.898	-2.4127
-12.906	-2.5970
-13.914	-2.7813
-14.922	-2.9657
-15.930	-3.1499
-16.937	-3.3341
-17.945	-3.5183
-18.953	-3.7025
-19.961	-3.8865
-20.969	-4.0704
-21.977	-4.2543
-22.985	-4.4382
-23.993	-4.6221
-25.001	-4.8060
-26.008	-4.9899
-27.016	-5.1738
-28.024	-5.3576
-29.032	-5.5415
-30.040	-5.7254
-31.048	-5.9093
-32.056	-6.0932
-33.064	-6.2771
-34.109	-6.4610
-35.175	-6.6449
-36.240	-6.8288
-37.306	-7.0126
-38.372	-7.1965
-39.438	-7.3804
-40.504	-7.5642
-41.570	-7.7480
-42.636	-7.9318
-43.702	-8.1156
-44.768	-8.2994
-45.833	-8.4832
-46.899	-8.6670
-47.917	-8.8508
-48.807	-9.0346
-49.698	-9.2184
-50.588	-9.4022
-51.478	-9.5860
-52.365	-9.7698
-53.198	-9.9536
-39.788	-9.9999
-43.181	-10.007
-35.696	-9.9127
-34.852	-9.7358
-34.008	-9.5590
-33.164	-9.3822
-32.320	-9.1995
-31.476	-9.0155
-30.633	-8.8315
-29.789	-8.6475
-28.945	-8.4635
-28.101	-8.2795
-27.257	-8.0956
-26.413	-7.9116
-25.462	-7.7276
-24.457	-7.5436
-23.453	-7.3596
-22.448	-7.1756
-21.444	-6.9917
-20.439	-6.8077
-19.435	-6.6237
-18.430	-6.4397
-17.426	-6.2557
-15.834	-6.0717
-14.117	-5.8877
-13.152	-5.7038
-12.187	-5.5198
-11.222	-5.3358
-10.258	-5.1518
-9.2926	-4.9678
-8.3277	-4.7838
-7.3628	-4.5999
-6.3979	-4.4159
-5.4329	-4.2319
-4.4680	-4.0479
-3.5031	-3.8639
-2.5382	-3.6799
-1.5732	-3.4960
-0.60831	-3.3120
0.35662	-3.1280
1.3215	-2.9440
2.2865	-2.7600
3.2514	-2.5760
4.2163	-2.3920
5.1812	-2.2081
6.1462	-2.0241
7.3062	-1.8401
8.4738	-1.6493
9.6414	-1.4657
10.809	-1.2820
11.977	-1.0983
13.169	-0.91463
14.670	-0.73095
16.172	-0.54728
17.673	-0.36361
19.174	-0.17993
20.260	0.0037415
20.458	0.18742
20.655	0.37109
20.853	0.55476
22.273	0.73844
23.796	0.92340
25.319	1.1073
26.843	1.2913
28.366	1.4752
28.914	1.6591
29.070	1.8431
29.225	2.0270
29.381	2.2109
29.537	2.3949
29.795	2.5788
31.926	2.7627
34.058	2.9467
36.189	3.1306
37.322	3.3145
37.928	3.4985
38.535	3.6824
39.141	3.8663
39.747	4.0502
40.354	4.2341
41.653	4.4180
43.542	4.6018
45.431	4.7857
46.710	4.9696
46.948	5.1535
47.186	5.3374
47.424	5.5213
47.662	5.7052
47.900	5.8891
48.139	6.0728
49.594	6.2566
51.947	6.4404
54.299	6.6242
56.294	6.8080
56.642	6.9918
56.991	7.1756
57.340	7.3594
57.688	7.5432
58.037	7.7270
58.386	7.9108
59.049	8.0946
61.386	8.2754
63.722	8.4683
66.059	8.6539
66.792	8.8368
67.023	9.0196
67.253	9.2025
67.484	9.3854
67.715	9.5682
67.946	9.7511
69.689	9.9338
58.830	9.9446
54.820	9.7551
53.172	9.5825
51.524	9.4098
49.875	9.2348
48.227	9.0508
46.579	8.8668
44.931	8.6828
43.282	8.4988
41.919	8.3148
40.897	8.1307
39.874	7.9467
38.851	7.7627
37.829	7.5787
36.806	7.3947
35.783	7.2107
34.761	7.0267
33.738	6.8427
32.716	6.6587
31.693	6.4747
30.670	6.2907
29.648	6.1067
28.625	5.9227
27.602	5.7387
26.580	5.5547
25.557	5.3707
24.535	5.1867
23.512	5.0027
22.489	4.8187
21.467	4.6347
20.444	4.4507
19.421	4.2667
18.399	4.0827
17.376	3.8987
16.354	3.7094
15.331	3.5254
14.308	3.3414
13.286	3.1574
12.263	2.9734
11.240	2.7894
10.218	2.6054
9.1952	2.4214
8.1725	2.2374
7.1499	2.0534
6.1273	1.8695
5.1047	1.6855
4.0820	1.5015
3.0594	1.3175
2.0368	1.1335
1.0141	0.94949
-0.0084804	0.76550
-1.0311	0.58151
-2.0537	0.39752
-3.0764	0.21352
-4.0990	0.029531
-5.1216	-0.15178
-6.1442	-0.33576
-7.1669	-0.51975
-8.1895	-0.70374
-9.2121	-0.88772
-10.235	-1.0717
-11.257	-1.2557
-12.280	-1.4397
-13.303	-1.6237
-14.325	-1.8077
-15.348	-1.9916
-16.371	-2.1756
-17.366	-2.3596
-18.360	-2.5436
-19.354	-2.7276
-20.347	-2.9116
-21.341	-3.0956
-22.335	-3.2795
-23.328	-3.4635
-24.322	-3.6475
-25.316	-3.8315
-26.310	-4.0155
-27.303	-4.1995
-28.297	-4.3833
-29.291	-4.5672
-30.284	-4.7510
-31.278	-4.9349
-32.272	-5.1187
-33.266	-5.3025
-34.259	-5.4864
-35.253	-5.6702
-36.247	-5.8541
-37.240	-6.0379
-38.234	-6.2218
-39.191	-6.4056
-40.112	-6.5895
-41.034	-6.7733
-41.955	-6.9572
-42.876	-7.1410
-43.798	-7.3249
-44.719	-7.5087
-45.641	-7.6926
-46.594	-7.8764
-47.603	-8.0603
-48.613	-8.2441
-49.622	-8.4279
-50.632	-8.6118
-51.641	-8.7956
-52.651	-8.9795
-53.660	-9.1633
-54.670	-9.3472
-55.679	-9.5310
-56.689	-9.7151
-57.699	-9.9000
-51.869	-9.9768
-34.138	-9.7973