File: text_data/C9.txt
Load (N)	Extension (mm)

0.20448	-0.046387
0.23590	-0.046387
5.2123	0.031416
-4.1259	0.098857
-9.4434	-0.40929
-12.522	-0.94274
-15.600	-1.4763
-18.678	-2.0100
-21.757	-2.5403
-24.835	-3.0688
-27.914	-3.5990
-30.992	-4.1281
-34.070	-4.6573
-37.149	-5.1864
-40.183	-5.7155
-43.157	-6.2446
-46.132	-6.7737
-49.106	-7.3029
-52.081	-7.8320
-55.055	-8.3605
-58.030	-8.8891
-61.059	-9.4177
-64.109	-9.9462
-67.159	-10.475
-70.209	-11.003
-73.259	-11.532
-76.326	-12.061
-79.496	-12.590
-82.665	-13.119
-85.835	-13.648
-89.005	-14.177
-91.999	-14.706
-94.898	-15.236
-97.798	-15.765
-100.70	-16.295
-103.78	-16.823
-107.25	-17.352
-110.71	-17.881
-114.20	-18.409
-120.06	-18.938
-129.84	-19.466
-139.59	-19.992
-145.10	-20.520
-150.33	-21.049
-185.17	-21.577
-240.51	-22.106
-318.52	-22.633
-392.46	-23.160
-454.76	-23.685
-521.06	-23.893
-210.03	-23.400
-116.40	-22.871
-114.14	-22.342
-111.89	-21.813
-109.63	-21.284
-107.38	-20.756
-105.12	-20.227
-102.86	-19.698
-80.275	-19.169
-77.367	-18.640
-74.459	-18.111
-70.857	-17.582
-67.865	-17.054
-65.959	-16.525
-65.069	-15.996
-60.184	-15.468
-58.306	-14.939
-56.847	-14.410
-54.152	-13.881
-48.692	-13.352
-47.406	-12.822
-46.121	-12.296
-41.114	-11.766
-38.157	-11.237
-36.791	-10.708
-34.608	-10.179
-30.749	-9.6504
-27.559	-9.1218
-25.758	-8.5932
-24.598	-8.0645
-19.644	-7.5351
-17.471	-7.0031
-15.298	-6.4765
-13.702	-5.9491
-8.5798	-5.4202
-6.5874	-4.8913
-4.5949	-4.3624
-3.7015	-3.8333
0.094953	-3.3038
2.4942	-2.7743
3.6503	-2.2422
5.1160	-1.7138
11.322	-1.1855
12.224	-0.65718
13.660	-0.12865
18.961	0.40015
19.651	0.92896
22.011	1.4578
25.328	1.9866
25.845	2.5154
31.228	3.0442
32.704	3.5730
37.262	4.1018
40.323	4.6306
43.133	5.1593
43.430	5.6876
48.303	6.2159
51.783	6.7442
53.582	7.2726
54.717	7.8018
58.677	8.3315
61.790	8.8611
63.689	9.3893
68.953	9.9153
70.573	10.454
72.990	10.973
78.600	11.502
81.332	12.031
83.856	12.560
86.380	13.090
88.904	13.619
93.849	14.148
97.125	14.677
97.602	15.206
101.01	15.735
104.57	16.264
107.70	16.793
110.17	17.322
114.72	17.851
119.51	18.380
124.05	18.909
126.58	19.439
129.49	19.969
134.01	20.498
136.24	21.027
138.34	21.556
144.41	22.085
146.92	22.614
149.43	23.143
152.38	23.671
156.22	24.199
159.59	24.727
163.20	25.256
169.44	25.785
173.15	26.314
176.85	26.843
184.21	27.371
187.42	27.900
190.63	28.429
193.84	28.958
201.54	29.486
211.97	30.015
218.07	30.544
223.83	31.073
229.53	31.602
238.39	32.131
247.25	32.660
257.05	33.189
266.90	33.717
276.75	34.245
285.65	34.774
309.75	35.304
331.38	35.832
352.02	36.361
373.98	36.889
408.61	37.417
450.55	37.945
493.61	38.458
329.10	37.931
265.00	37.403
244.61	36.874
230.17	36.346
215.73	35.818
201.29	35.289
200.14	34.761
194.70	34.233
189.25	33.704
183.81	33.175
178.37	32.646
172.92	32.118
167.48	31.589
160.91	31.060
156.84	30.531
153.06	30.002
149.29	29.474
145.51	28.945
141.74	28.416
137.97	27.887
134.19	27.358
130.42	26.829
126.65	26.300
122.87	25.771
119.39	25.242
115.96	24.713
112.54	24.184
109.11	23.655
105.69	23.126
102.26	22.597
98.836	22.067
95.411	21.538
91.986	21.009
88.707	20.480
85.494	19.952
82.281	19.423
79.067	18.894
75.854	18.365
72.658	17.836
69.544	17.307
66.430	16.778
63.316	16.249
60.220	15.721
57.321	15.192
54.422	14.663
51.523	14.134
48.624	13.603
45.725	13.073
42.826	12.546
39.927	12.018
37.028	11.489
34.179	10.959
31.331	10.429
28.483	9.8997
25.636	9.3709
22.788	8.8421
19.940	8.3132
17.092	7.7844
14.250	7.2555
11.460	6.7267
8.6705	6.1978
5.8806	5.6690
3.0907	5.1403
0.30073	4.6113
-2.4892	4.0818
-5.2791	3.5523
-8.1290	3.0232
-10.989	2.4940
-13.850	1.9648
-16.710	1.4389
-19.441	0.90992
-22.111	0.38099
-24.782	-0.14794
-27.452	-0.67687
-30.122	-1.2058
-32.792	-1.7347
-35.445	-2.2637
-38.083	-2.7926
-40.721	-3.3215
-43.360	-3.8511
-46.010	-4.3808
-48.708	-4.9097
-51.407	-5.4386
-54.105	-5.9674
-56.799	-6.4963
-59.339	-7.0252
-61.880	-7.5539
-64.596	-8.0824
-67.435	-8.6110
-70.274	-9.1395
-73.113	-9.6681
-75.952	-10.197
-78.791	-10.727
-81.631	-11.256
-84.470	-11.785
-87.309	-12.315
-90.510	-12.844
-93.779	-13.373
-96.128	-13.902
-99.213	-14.431
-102.30	-14.960
-105.92	-15.489
-109.62	-16.017
-113.31	-16.546
-117.00	-17.075
-120.68	-17.604
-124.35	-18.133
-128.71	-18.662
-133.32	-19.191
-137.76	-19.720
-142.16	-20.249
-146.65	-20.778
-168.82	-21.307
-191.45	-21.836
-238.11	-22.364
-313.15	-22.888
-386.36	-23.413
-459.05	-23.728
-335.74	-23.592